#  E (eV)   dos(E)     Int dos(E) EFermi =    6.926 eV
 -16.844  0.0000E+00  0.0000E+00
 -16.834  0.7721E+00  0.7376E-02
 -16.824  0.8280E+00  0.1538E-01
 -16.814  0.8844E+00  0.2394E-01
 -16.804  0.9413E+00  0.3307E-01
 -16.794  0.9986E+00  0.4276E-01
 -16.784  0.1056E+01  0.5304E-01
 -16.774  0.1115E+01  0.6389E-01
 -16.764  0.1173E+01  0.7533E-01
 -16.754  0.1239E+01  0.8737E-01
 -16.744  0.1320E+01  0.1002E+00
 -16.734  0.1403E+01  0.1138E+00
 -16.724  0.1488E+01  0.1282E+00
 -16.714  0.1574E+01  0.1435E+00
 -16.704  0.1662E+01  0.1597E+00
 -16.694  0.1751E+01  0.1768E+00
 -16.684  0.1842E+01  0.1948E+00
 -16.674  0.1935E+01  0.2136E+00
 -16.664  0.2029E+01  0.2335E+00
 -16.654  0.2125E+01  0.2542E+00
 -16.644  0.2222E+01  0.2760E+00
 -16.634  0.2321E+01  0.2987E+00
 -16.624  0.2422E+01  0.3224E+00
 -16.614  0.3166E+01  0.3472E+00
 -16.604  0.3510E+01  0.3820E+00
 -16.594  0.3619E+01  0.4175E+00
 -16.584  0.3764E+01  0.4545E+00
 -16.574  0.3915E+01  0.4928E+00
 -16.564  0.4073E+01  0.5328E+00
 -16.554  0.4237E+01  0.5743E+00
 -16.544  0.4422E+01  0.6176E+00
 -16.534  0.4911E+01  0.6635E+00
 -16.524  0.5146E+01  0.7138E+00
 -16.514  0.5380E+01  0.7664E+00
 -16.504  0.5612E+01  0.8214E+00
 -16.494  0.5842E+01  0.8787E+00
 -16.484  0.6071E+01  0.9382E+00
 -16.474  0.6299E+01  0.1000E+01
 -16.464  0.6525E+01  0.1064E+01
 -16.454  0.6749E+01  0.1131E+01
 -16.444  0.7019E+01  0.1199E+01
 -16.434  0.7757E+01  0.1273E+01
 -16.424  0.8628E+01  0.1355E+01
 -16.414  0.9133E+01  0.1441E+01
 -16.404  0.9359E+01  0.1535E+01
 -16.394  0.9079E+01  0.1627E+01
 -16.384  0.8628E+01  0.1716E+01
 -16.374  0.8008E+01  0.1799E+01
 -16.364  0.6392E+01  0.1870E+01
 -16.354  0.4661E+01  0.1926E+01
 -16.344  0.2921E+01  0.1964E+01
 -16.334  0.1238E+01  0.1984E+01
 -16.324  0.6837E+00  0.1994E+01
 -16.314  0.2871E+00  0.1998E+01
 -16.304  0.4810E-01  0.2000E+01
 -16.294  0.0000E+00  0.2000E+01
 -16.284  0.0000E+00  0.2000E+01
 -16.274  0.0000E+00  0.2000E+01
 -16.264  0.0000E+00  0.2000E+01
 -16.254  0.0000E+00  0.2000E+01
 -16.244  0.0000E+00  0.2000E+01
 -16.234  0.0000E+00  0.2000E+01
 -16.224  0.0000E+00  0.2000E+01
 -16.214  0.0000E+00  0.2000E+01
 -16.204  0.0000E+00  0.2000E+01
 -16.194  0.4997E+00  0.2000E+01
 -16.184  0.1449E+01  0.2014E+01
 -16.174  0.1450E+01  0.2029E+01
 -16.164  0.1450E+01  0.2043E+01
 -16.154  0.1448E+01  0.2058E+01
 -16.144  0.1506E+01  0.2073E+01
 -16.134  0.1595E+01  0.2088E+01
 -16.124  0.1689E+01  0.2104E+01
 -16.114  0.1787E+01  0.2122E+01
 -16.104  0.1890E+01  0.2140E+01
 -16.094  0.1997E+01  0.2160E+01
 -16.084  0.2109E+01  0.2180E+01
 -16.074  0.2225E+01  0.2202E+01
 -16.064  0.2347E+01  0.2225E+01
 -16.054  0.2652E+01  0.2249E+01
 -16.044  0.3254E+01  0.2279E+01
 -16.034  0.3943E+01  0.2315E+01
 -16.024  0.4597E+01  0.2357E+01
 -16.014  0.5554E+01  0.2408E+01
 -16.004  0.6179E+01  0.2467E+01
 -15.994  0.6740E+01  0.2532E+01
 -15.984  0.7308E+01  0.2602E+01
 -15.974  0.7882E+01  0.2678E+01
 -15.964  0.8464E+01  0.2760E+01
 -15.954  0.9053E+01  0.2847E+01
 -15.944  0.9649E+01  0.2941E+01
 -15.934  0.9706E+01  0.3047E+01
 -15.924  0.8887E+01  0.3139E+01
 -15.914  0.8155E+01  0.3225E+01
 -15.904  0.7442E+01  0.3303E+01
 -15.894  0.6749E+01  0.3374E+01
 -15.884  0.6076E+01  0.3438E+01
 -15.874  0.5423E+01  0.3495E+01
 -15.864  0.4790E+01  0.3546E+01
 -15.854  0.4339E+01  0.3592E+01
 -15.844  0.3820E+01  0.3633E+01
 -15.834  0.3255E+01  0.3668E+01
 -15.824  0.2952E+01  0.3699E+01
 -15.814  0.2692E+01  0.3727E+01
 -15.804  0.2475E+01  0.3753E+01
 -15.794  0.2301E+01  0.3777E+01
 -15.784  0.2181E+01  0.3799E+01
 -15.774  0.2081E+01  0.3820E+01
 -15.764  0.1986E+01  0.3841E+01
 -15.754  0.1896E+01  0.3860E+01
 -15.744  0.1811E+01  0.3878E+01
 -15.734  0.1730E+01  0.3896E+01
 -15.724  0.1653E+01  0.3913E+01
 -15.714  0.1582E+01  0.3929E+01
 -15.704  0.1515E+01  0.3945E+01
 -15.694  0.1778E+01  0.3961E+01
 -15.684  0.2136E+01  0.3980E+01
 -15.674  0.2118E-02  0.4000E+01
 -15.664  0.0000E+00  0.4000E+01
 -15.654  0.0000E+00  0.4000E+01
 -15.644  0.0000E+00  0.4000E+01
 -15.634  0.0000E+00  0.4000E+01
 -15.624  0.0000E+00  0.4000E+01
 -15.614  0.0000E+00  0.4000E+01
 -15.604  0.0000E+00  0.4000E+01
 -15.594  0.0000E+00  0.4000E+01
 -15.584  0.0000E+00  0.4000E+01
 -15.574  0.0000E+00  0.4000E+01
 -15.564  0.0000E+00  0.4000E+01
 -15.554  0.0000E+00  0.4000E+01
 -15.544  0.0000E+00  0.4000E+01
 -15.534  0.8730E-01  0.4000E+01
 -15.524  0.2331E+00  0.4002E+01
 -15.514  0.4089E+00  0.4005E+01
 -15.504  0.6147E+00  0.4010E+01
 -15.494  0.8505E+00  0.4017E+01
 -15.484  0.1116E+01  0.4027E+01
 -15.474  0.1412E+01  0.4040E+01
 -15.464  0.1738E+01  0.4056E+01
 -15.454  0.2093E+01  0.4075E+01
 -15.444  0.2479E+01  0.4098E+01
 -15.434  0.3193E+01  0.4125E+01
 -15.424  0.3469E+01  0.4159E+01
 -15.414  0.4000E+01  0.4196E+01
 -15.404  0.4656E+01  0.4239E+01
 -15.394  0.6168E+01  0.4290E+01
 -15.384  0.9186E+01  0.4368E+01
 -15.374  0.1096E+02  0.4471E+01
 -15.364  0.1297E+02  0.4589E+01
 -15.354  0.1221E+02  0.4715E+01
 -15.344  0.1054E+02  0.4829E+01
 -15.334  0.8710E+01  0.4925E+01
 -15.324  0.7068E+01  0.5003E+01
 -15.314  0.6577E+01  0.5071E+01
 -15.304  0.6106E+01  0.5134E+01
 -15.294  0.5549E+01  0.5193E+01
 -15.284  0.5201E+01  0.5247E+01
 -15.274  0.4862E+01  0.5297E+01
 -15.264  0.4529E+01  0.5344E+01
 -15.254  0.4204E+01  0.5387E+01
 -15.244  0.3897E+01  0.5428E+01
 -15.234  0.3664E+01  0.5466E+01
 -15.224  0.3440E+01  0.5501E+01
 -15.214  0.3250E+01  0.5535E+01
 -15.204  0.3122E+01  0.5566E+01
 -15.194  0.3024E+01  0.5597E+01
 -15.184  0.2953E+01  0.5627E+01
 -15.174  0.1978E+01  0.5654E+01
 -15.164  0.1911E+01  0.5673E+01
 -15.154  0.1845E+01  0.5692E+01
 -15.144  0.1780E+01  0.5710E+01
 -15.134  0.1716E+01  0.5728E+01
 -15.124  0.1653E+01  0.5744E+01
 -15.114  0.1592E+01  0.5761E+01
 -15.104  0.1531E+01  0.5776E+01
 -15.094  0.1471E+01  0.5791E+01
 -15.084  0.1412E+01  0.5806E+01
 -15.074  0.1355E+01  0.5820E+01
 -15.064  0.1298E+01  0.5833E+01
 -15.054  0.1243E+01  0.5845E+01
 -15.044  0.1188E+01  0.5858E+01
 -15.034  0.1135E+01  0.5869E+01
 -15.024  0.1082E+01  0.5880E+01
 -15.014  0.1031E+01  0.5891E+01
 -15.004  0.9804E+00  0.5901E+01
 -14.994  0.9326E+00  0.5911E+01
 -14.984  0.8937E+00  0.5920E+01
 -14.974  0.8554E+00  0.5928E+01
 -14.964  0.8177E+00  0.5937E+01
 -14.954  0.7807E+00  0.5945E+01
 -14.944  0.7442E+00  0.5952E+01
 -14.934  0.7084E+00  0.5960E+01
 -14.924  0.6732E+00  0.5967E+01
 -14.914  0.6386E+00  0.5973E+01
 -14.904  0.6046E+00  0.5979E+01
 -14.894  0.5713E+00  0.5985E+01
 -14.884  0.5385E+00  0.5991E+01
 -14.874  0.5064E+00  0.5996E+01
 -14.864  0.7233E-01  0.6000E+01
 -14.854  0.0000E+00  0.6000E+01
 -14.844  0.0000E+00  0.6000E+01
 -14.834  0.0000E+00  0.6000E+01
 -14.824  0.0000E+00  0.6000E+01
 -14.814  0.3649E+02  0.6204E+01
 -14.804  0.6252E+02  0.6645E+01
 -14.794  0.2923E+02  0.7298E+01
 -14.784  0.2357E+02  0.7558E+01
 -14.774  0.8956E+02  0.8005E+01
 -14.764  0.7618E+02  0.8954E+01
 -14.754  0.3672E+02  0.9487E+01
 -14.744  0.8774E+02  0.9952E+01
 -14.734  0.6878E+02  0.1116E+02
 -14.724  0.3552E+02  0.1162E+02
 -14.714  0.2358E+02  0.1192E+02
 -14.704  0.0000E+00  0.1200E+02
 -14.694  0.0000E+00  0.1200E+02
 -14.684  0.0000E+00  0.1200E+02
 -14.674  0.0000E+00  0.1200E+02
 -14.664  0.0000E+00  0.1200E+02
 -14.654  0.0000E+00  0.1200E+02
 -14.644  0.0000E+00  0.1200E+02
 -14.634  0.0000E+00  0.1200E+02
 -14.624  0.0000E+00  0.1200E+02
 -14.614  0.0000E+00  0.1200E+02
 -14.604  0.0000E+00  0.1200E+02
 -14.594  0.0000E+00  0.1200E+02
 -14.584  0.0000E+00  0.1200E+02
 -14.574  0.0000E+00  0.1200E+02
 -14.564  0.0000E+00  0.1200E+02
 -14.554  0.0000E+00  0.1200E+02
 -14.544  0.0000E+00  0.1200E+02
 -14.534  0.0000E+00  0.1200E+02
 -14.524  0.0000E+00  0.1200E+02
 -14.514  0.0000E+00  0.1200E+02
 -14.504  0.0000E+00  0.1200E+02
 -14.494  0.0000E+00  0.1200E+02
 -14.484  0.0000E+00  0.1200E+02
 -14.474  0.0000E+00  0.1200E+02
 -14.464  0.0000E+00  0.1200E+02
 -14.454  0.0000E+00  0.1200E+02
 -14.444  0.0000E+00  0.1200E+02
 -14.434  0.0000E+00  0.1200E+02
 -14.424  0.0000E+00  0.1200E+02
 -14.414  0.0000E+00  0.1200E+02
 -14.404  0.0000E+00  0.1200E+02
 -14.394  0.0000E+00  0.1200E+02
 -14.384  0.0000E+00  0.1200E+02
 -14.374  0.0000E+00  0.1200E+02
 -14.364  0.0000E+00  0.1200E+02
 -14.354  0.0000E+00  0.1200E+02
 -14.344  0.0000E+00  0.1200E+02
 -14.334  0.0000E+00  0.1200E+02
 -14.324  0.0000E+00  0.1200E+02
 -14.314  0.0000E+00  0.1200E+02
 -14.304  0.0000E+00  0.1200E+02
 -14.294  0.0000E+00  0.1200E+02
 -14.284  0.0000E+00  0.1200E+02
 -14.274  0.0000E+00  0.1200E+02
 -14.264  0.0000E+00  0.1200E+02
 -14.254  0.0000E+00  0.1200E+02
 -14.244  0.0000E+00  0.1200E+02
 -14.234  0.0000E+00  0.1200E+02
 -14.224  0.0000E+00  0.1200E+02
 -14.214  0.0000E+00  0.1200E+02
 -14.204  0.0000E+00  0.1200E+02
 -14.194  0.0000E+00  0.1200E+02
 -14.184  0.0000E+00  0.1200E+02
 -14.174  0.0000E+00  0.1200E+02
 -14.164  0.0000E+00  0.1200E+02
 -14.154  0.0000E+00  0.1200E+02
 -14.144  0.0000E+00  0.1200E+02
 -14.134  0.0000E+00  0.1200E+02
 -14.124  0.0000E+00  0.1200E+02
 -14.114  0.0000E+00  0.1200E+02
 -14.104  0.0000E+00  0.1200E+02
 -14.094  0.0000E+00  0.1200E+02
 -14.084  0.0000E+00  0.1200E+02
 -14.074  0.0000E+00  0.1200E+02
 -14.064  0.0000E+00  0.1200E+02
 -14.054  0.0000E+00  0.1200E+02
 -14.044  0.0000E+00  0.1200E+02
 -14.034  0.0000E+00  0.1200E+02
 -14.024  0.0000E+00  0.1200E+02
 -14.014  0.0000E+00  0.1200E+02
 -14.004  0.0000E+00  0.1200E+02
 -13.994  0.0000E+00  0.1200E+02
 -13.984  0.0000E+00  0.1200E+02
 -13.974  0.0000E+00  0.1200E+02
 -13.964  0.0000E+00  0.1200E+02
 -13.954  0.0000E+00  0.1200E+02
 -13.944  0.0000E+00  0.1200E+02
 -13.934  0.0000E+00  0.1200E+02
 -13.924  0.0000E+00  0.1200E+02
 -13.914  0.0000E+00  0.1200E+02
 -13.904  0.0000E+00  0.1200E+02
 -13.894  0.0000E+00  0.1200E+02
 -13.884  0.0000E+00  0.1200E+02
 -13.874  0.0000E+00  0.1200E+02
 -13.864  0.0000E+00  0.1200E+02
 -13.854  0.0000E+00  0.1200E+02
 -13.844  0.0000E+00  0.1200E+02
 -13.834  0.0000E+00  0.1200E+02
 -13.824  0.0000E+00  0.1200E+02
 -13.814  0.0000E+00  0.1200E+02
 -13.804  0.0000E+00  0.1200E+02
 -13.794  0.0000E+00  0.1200E+02
 -13.784  0.0000E+00  0.1200E+02
 -13.774  0.0000E+00  0.1200E+02
 -13.764  0.0000E+00  0.1200E+02
 -13.754  0.0000E+00  0.1200E+02
 -13.744  0.0000E+00  0.1200E+02
 -13.734  0.0000E+00  0.1200E+02
 -13.724  0.0000E+00  0.1200E+02
 -13.714  0.0000E+00  0.1200E+02
 -13.704  0.0000E+00  0.1200E+02
 -13.694  0.0000E+00  0.1200E+02
 -13.684  0.0000E+00  0.1200E+02
 -13.674  0.0000E+00  0.1200E+02
 -13.664  0.0000E+00  0.1200E+02
 -13.654  0.0000E+00  0.1200E+02
 -13.644  0.0000E+00  0.1200E+02
 -13.634  0.0000E+00  0.1200E+02
 -13.624  0.0000E+00  0.1200E+02
 -13.614  0.0000E+00  0.1200E+02
 -13.604  0.0000E+00  0.1200E+02
 -13.594  0.0000E+00  0.1200E+02
 -13.584  0.0000E+00  0.1200E+02
 -13.574  0.0000E+00  0.1200E+02
 -13.564  0.0000E+00  0.1200E+02
 -13.554  0.0000E+00  0.1200E+02
 -13.544  0.0000E+00  0.1200E+02
 -13.534  0.0000E+00  0.1200E+02
 -13.524  0.0000E+00  0.1200E+02
 -13.514  0.0000E+00  0.1200E+02
 -13.504  0.0000E+00  0.1200E+02
 -13.494  0.0000E+00  0.1200E+02
 -13.484  0.0000E+00  0.1200E+02
 -13.474  0.0000E+00  0.1200E+02
 -13.464  0.0000E+00  0.1200E+02
 -13.454  0.0000E+00  0.1200E+02
 -13.444  0.0000E+00  0.1200E+02
 -13.434  0.0000E+00  0.1200E+02
 -13.424  0.0000E+00  0.1200E+02
 -13.414  0.0000E+00  0.1200E+02
 -13.404  0.0000E+00  0.1200E+02
 -13.394  0.0000E+00  0.1200E+02
 -13.384  0.0000E+00  0.1200E+02
 -13.374  0.0000E+00  0.1200E+02
 -13.364  0.0000E+00  0.1200E+02
 -13.354  0.0000E+00  0.1200E+02
 -13.344  0.0000E+00  0.1200E+02
 -13.334  0.0000E+00  0.1200E+02
 -13.324  0.0000E+00  0.1200E+02
 -13.314  0.0000E+00  0.1200E+02
 -13.304  0.0000E+00  0.1200E+02
 -13.294  0.0000E+00  0.1200E+02
 -13.284  0.0000E+00  0.1200E+02
 -13.274  0.0000E+00  0.1200E+02
 -13.264  0.0000E+00  0.1200E+02
 -13.254  0.0000E+00  0.1200E+02
 -13.244  0.0000E+00  0.1200E+02
 -13.234  0.0000E+00  0.1200E+02
 -13.224  0.0000E+00  0.1200E+02
 -13.214  0.0000E+00  0.1200E+02
 -13.204  0.0000E+00  0.1200E+02
 -13.194  0.0000E+00  0.1200E+02
 -13.184  0.0000E+00  0.1200E+02
 -13.174  0.0000E+00  0.1200E+02
 -13.164  0.0000E+00  0.1200E+02
 -13.154  0.0000E+00  0.1200E+02
 -13.144  0.0000E+00  0.1200E+02
 -13.134  0.0000E+00  0.1200E+02
 -13.124  0.0000E+00  0.1200E+02
 -13.114  0.0000E+00  0.1200E+02
 -13.104  0.0000E+00  0.1200E+02
 -13.094  0.0000E+00  0.1200E+02
 -13.084  0.0000E+00  0.1200E+02
 -13.074  0.0000E+00  0.1200E+02
 -13.064  0.0000E+00  0.1200E+02
 -13.054  0.0000E+00  0.1200E+02
 -13.044  0.0000E+00  0.1200E+02
 -13.034  0.0000E+00  0.1200E+02
 -13.024  0.0000E+00  0.1200E+02
 -13.014  0.0000E+00  0.1200E+02
 -13.004  0.0000E+00  0.1200E+02
 -12.994  0.0000E+00  0.1200E+02
 -12.984  0.0000E+00  0.1200E+02
 -12.974  0.0000E+00  0.1200E+02
 -12.964  0.0000E+00  0.1200E+02
 -12.954  0.0000E+00  0.1200E+02
 -12.944  0.0000E+00  0.1200E+02
 -12.934  0.0000E+00  0.1200E+02
 -12.924  0.0000E+00  0.1200E+02
 -12.914  0.0000E+00  0.1200E+02
 -12.904  0.0000E+00  0.1200E+02
 -12.894  0.0000E+00  0.1200E+02
 -12.884  0.0000E+00  0.1200E+02
 -12.874  0.0000E+00  0.1200E+02
 -12.864  0.0000E+00  0.1200E+02
 -12.854  0.0000E+00  0.1200E+02
 -12.844  0.0000E+00  0.1200E+02
 -12.834  0.0000E+00  0.1200E+02
 -12.824  0.0000E+00  0.1200E+02
 -12.814  0.0000E+00  0.1200E+02
 -12.804  0.0000E+00  0.1200E+02
 -12.794  0.0000E+00  0.1200E+02
 -12.784  0.0000E+00  0.1200E+02
 -12.774  0.0000E+00  0.1200E+02
 -12.764  0.0000E+00  0.1200E+02
 -12.754  0.0000E+00  0.1200E+02
 -12.744  0.0000E+00  0.1200E+02
 -12.734  0.0000E+00  0.1200E+02
 -12.724  0.0000E+00  0.1200E+02
 -12.714  0.0000E+00  0.1200E+02
 -12.704  0.0000E+00  0.1200E+02
 -12.694  0.0000E+00  0.1200E+02
 -12.684  0.0000E+00  0.1200E+02
 -12.674  0.0000E+00  0.1200E+02
 -12.664  0.0000E+00  0.1200E+02
 -12.654  0.0000E+00  0.1200E+02
 -12.644  0.0000E+00  0.1200E+02
 -12.634  0.0000E+00  0.1200E+02
 -12.624  0.0000E+00  0.1200E+02
 -12.614  0.0000E+00  0.1200E+02
 -12.604  0.0000E+00  0.1200E+02
 -12.594  0.0000E+00  0.1200E+02
 -12.584  0.0000E+00  0.1200E+02
 -12.574  0.0000E+00  0.1200E+02
 -12.564  0.0000E+00  0.1200E+02
 -12.554  0.0000E+00  0.1200E+02
 -12.544  0.0000E+00  0.1200E+02
 -12.534  0.0000E+00  0.1200E+02
 -12.524  0.0000E+00  0.1200E+02
 -12.514  0.0000E+00  0.1200E+02
 -12.504  0.0000E+00  0.1200E+02
 -12.494  0.0000E+00  0.1200E+02
 -12.484  0.0000E+00  0.1200E+02
 -12.474  0.0000E+00  0.1200E+02
 -12.464  0.0000E+00  0.1200E+02
 -12.454  0.0000E+00  0.1200E+02
 -12.444  0.0000E+00  0.1200E+02
 -12.434  0.0000E+00  0.1200E+02
 -12.424  0.0000E+00  0.1200E+02
 -12.414  0.0000E+00  0.1200E+02
 -12.404  0.0000E+00  0.1200E+02
 -12.394  0.0000E+00  0.1200E+02
 -12.384  0.0000E+00  0.1200E+02
 -12.374  0.0000E+00  0.1200E+02
 -12.364  0.0000E+00  0.1200E+02
 -12.354  0.0000E+00  0.1200E+02
 -12.344  0.0000E+00  0.1200E+02
 -12.334  0.0000E+00  0.1200E+02
 -12.324  0.0000E+00  0.1200E+02
 -12.314  0.0000E+00  0.1200E+02
 -12.304  0.0000E+00  0.1200E+02
 -12.294  0.0000E+00  0.1200E+02
 -12.284  0.0000E+00  0.1200E+02
 -12.274  0.0000E+00  0.1200E+02
 -12.264  0.0000E+00  0.1200E+02
 -12.254  0.0000E+00  0.1200E+02
 -12.244  0.0000E+00  0.1200E+02
 -12.234  0.0000E+00  0.1200E+02
 -12.224  0.0000E+00  0.1200E+02
 -12.214  0.0000E+00  0.1200E+02
 -12.204  0.0000E+00  0.1200E+02
 -12.194  0.0000E+00  0.1200E+02
 -12.184  0.0000E+00  0.1200E+02
 -12.174  0.0000E+00  0.1200E+02
 -12.164  0.0000E+00  0.1200E+02
 -12.154  0.0000E+00  0.1200E+02
 -12.144  0.0000E+00  0.1200E+02
 -12.134  0.0000E+00  0.1200E+02
 -12.124  0.0000E+00  0.1200E+02
 -12.114  0.0000E+00  0.1200E+02
 -12.104  0.0000E+00  0.1200E+02
 -12.094  0.0000E+00  0.1200E+02
 -12.084  0.0000E+00  0.1200E+02
 -12.074  0.0000E+00  0.1200E+02
 -12.064  0.0000E+00  0.1200E+02
 -12.054  0.0000E+00  0.1200E+02
 -12.044  0.0000E+00  0.1200E+02
 -12.034  0.0000E+00  0.1200E+02
 -12.024  0.0000E+00  0.1200E+02
 -12.014  0.0000E+00  0.1200E+02
 -12.004  0.0000E+00  0.1200E+02
 -11.994  0.0000E+00  0.1200E+02
 -11.984  0.0000E+00  0.1200E+02
 -11.974  0.0000E+00  0.1200E+02
 -11.964  0.0000E+00  0.1200E+02
 -11.954  0.0000E+00  0.1200E+02
 -11.944  0.0000E+00  0.1200E+02
 -11.934  0.0000E+00  0.1200E+02
 -11.924  0.0000E+00  0.1200E+02
 -11.914  0.0000E+00  0.1200E+02
 -11.904  0.0000E+00  0.1200E+02
 -11.894  0.0000E+00  0.1200E+02
 -11.884  0.0000E+00  0.1200E+02
 -11.874  0.0000E+00  0.1200E+02
 -11.864  0.0000E+00  0.1200E+02
 -11.854  0.0000E+00  0.1200E+02
 -11.844  0.0000E+00  0.1200E+02
 -11.834  0.0000E+00  0.1200E+02
 -11.824  0.0000E+00  0.1200E+02
 -11.814  0.0000E+00  0.1200E+02
 -11.804  0.0000E+00  0.1200E+02
 -11.794  0.0000E+00  0.1200E+02
 -11.784  0.0000E+00  0.1200E+02
 -11.774  0.0000E+00  0.1200E+02
 -11.764  0.0000E+00  0.1200E+02
 -11.754  0.0000E+00  0.1200E+02
 -11.744  0.0000E+00  0.1200E+02
 -11.734  0.0000E+00  0.1200E+02
 -11.724  0.0000E+00  0.1200E+02
 -11.714  0.0000E+00  0.1200E+02
 -11.704  0.0000E+00  0.1200E+02
 -11.694  0.0000E+00  0.1200E+02
 -11.684  0.0000E+00  0.1200E+02
 -11.674  0.0000E+00  0.1200E+02
 -11.664  0.0000E+00  0.1200E+02
 -11.654  0.0000E+00  0.1200E+02
 -11.644  0.0000E+00  0.1200E+02
 -11.634  0.0000E+00  0.1200E+02
 -11.624  0.0000E+00  0.1200E+02
 -11.614  0.0000E+00  0.1200E+02
 -11.604  0.0000E+00  0.1200E+02
 -11.594  0.0000E+00  0.1200E+02
 -11.584  0.0000E+00  0.1200E+02
 -11.574  0.0000E+00  0.1200E+02
 -11.564  0.0000E+00  0.1200E+02
 -11.554  0.0000E+00  0.1200E+02
 -11.544  0.0000E+00  0.1200E+02
 -11.534  0.0000E+00  0.1200E+02
 -11.524  0.0000E+00  0.1200E+02
 -11.514  0.0000E+00  0.1200E+02
 -11.504  0.0000E+00  0.1200E+02
 -11.494  0.0000E+00  0.1200E+02
 -11.484  0.0000E+00  0.1200E+02
 -11.474  0.0000E+00  0.1200E+02
 -11.464  0.0000E+00  0.1200E+02
 -11.454  0.0000E+00  0.1200E+02
 -11.444  0.0000E+00  0.1200E+02
 -11.434  0.0000E+00  0.1200E+02
 -11.424  0.0000E+00  0.1200E+02
 -11.414  0.0000E+00  0.1200E+02
 -11.404  0.0000E+00  0.1200E+02
 -11.394  0.0000E+00  0.1200E+02
 -11.384  0.0000E+00  0.1200E+02
 -11.374  0.0000E+00  0.1200E+02
 -11.364  0.0000E+00  0.1200E+02
 -11.354  0.0000E+00  0.1200E+02
 -11.344  0.0000E+00  0.1200E+02
 -11.334  0.0000E+00  0.1200E+02
 -11.324  0.0000E+00  0.1200E+02
 -11.314  0.0000E+00  0.1200E+02
 -11.304  0.0000E+00  0.1200E+02
 -11.294  0.0000E+00  0.1200E+02
 -11.284  0.0000E+00  0.1200E+02
 -11.274  0.0000E+00  0.1200E+02
 -11.264  0.0000E+00  0.1200E+02
 -11.254  0.0000E+00  0.1200E+02
 -11.244  0.0000E+00  0.1200E+02
 -11.234  0.0000E+00  0.1200E+02
 -11.224  0.0000E+00  0.1200E+02
 -11.214  0.0000E+00  0.1200E+02
 -11.204  0.0000E+00  0.1200E+02
 -11.194  0.0000E+00  0.1200E+02
 -11.184  0.0000E+00  0.1200E+02
 -11.174  0.0000E+00  0.1200E+02
 -11.164  0.0000E+00  0.1200E+02
 -11.154  0.0000E+00  0.1200E+02
 -11.144  0.0000E+00  0.1200E+02
 -11.134  0.0000E+00  0.1200E+02
 -11.124  0.0000E+00  0.1200E+02
 -11.114  0.0000E+00  0.1200E+02
 -11.104  0.0000E+00  0.1200E+02
 -11.094  0.0000E+00  0.1200E+02
 -11.084  0.0000E+00  0.1200E+02
 -11.074  0.0000E+00  0.1200E+02
 -11.064  0.0000E+00  0.1200E+02
 -11.054  0.0000E+00  0.1200E+02
 -11.044  0.0000E+00  0.1200E+02
 -11.034  0.0000E+00  0.1200E+02
 -11.024  0.0000E+00  0.1200E+02
 -11.014  0.0000E+00  0.1200E+02
 -11.004  0.0000E+00  0.1200E+02
 -10.994  0.0000E+00  0.1200E+02
 -10.984  0.0000E+00  0.1200E+02
 -10.974  0.0000E+00  0.1200E+02
 -10.964  0.0000E+00  0.1200E+02
 -10.954  0.0000E+00  0.1200E+02
 -10.944  0.0000E+00  0.1200E+02
 -10.934  0.0000E+00  0.1200E+02
 -10.924  0.0000E+00  0.1200E+02
 -10.914  0.0000E+00  0.1200E+02
 -10.904  0.0000E+00  0.1200E+02
 -10.894  0.0000E+00  0.1200E+02
 -10.884  0.0000E+00  0.1200E+02
 -10.874  0.0000E+00  0.1200E+02
 -10.864  0.0000E+00  0.1200E+02
 -10.854  0.0000E+00  0.1200E+02
 -10.844  0.0000E+00  0.1200E+02
 -10.834  0.0000E+00  0.1200E+02
 -10.824  0.0000E+00  0.1200E+02
 -10.814  0.0000E+00  0.1200E+02
 -10.804  0.0000E+00  0.1200E+02
 -10.794  0.0000E+00  0.1200E+02
 -10.784  0.0000E+00  0.1200E+02
 -10.774  0.0000E+00  0.1200E+02
 -10.764  0.0000E+00  0.1200E+02
 -10.754  0.0000E+00  0.1200E+02
 -10.744  0.0000E+00  0.1200E+02
 -10.734  0.0000E+00  0.1200E+02
 -10.724  0.0000E+00  0.1200E+02
 -10.714  0.0000E+00  0.1200E+02
 -10.704  0.0000E+00  0.1200E+02
 -10.694  0.0000E+00  0.1200E+02
 -10.684  0.0000E+00  0.1200E+02
 -10.674  0.0000E+00  0.1200E+02
 -10.664  0.0000E+00  0.1200E+02
 -10.654  0.0000E+00  0.1200E+02
 -10.644  0.0000E+00  0.1200E+02
 -10.634  0.0000E+00  0.1200E+02
 -10.624  0.0000E+00  0.1200E+02
 -10.614  0.0000E+00  0.1200E+02
 -10.604  0.0000E+00  0.1200E+02
 -10.594  0.0000E+00  0.1200E+02
 -10.584  0.0000E+00  0.1200E+02
 -10.574  0.0000E+00  0.1200E+02
 -10.564  0.0000E+00  0.1200E+02
 -10.554  0.0000E+00  0.1200E+02
 -10.544  0.0000E+00  0.1200E+02
 -10.534  0.0000E+00  0.1200E+02
 -10.524  0.0000E+00  0.1200E+02
 -10.514  0.0000E+00  0.1200E+02
 -10.504  0.0000E+00  0.1200E+02
 -10.494  0.0000E+00  0.1200E+02
 -10.484  0.0000E+00  0.1200E+02
 -10.474  0.0000E+00  0.1200E+02
 -10.464  0.0000E+00  0.1200E+02
 -10.454  0.0000E+00  0.1200E+02
 -10.444  0.0000E+00  0.1200E+02
 -10.434  0.0000E+00  0.1200E+02
 -10.424  0.0000E+00  0.1200E+02
 -10.414  0.0000E+00  0.1200E+02
 -10.404  0.0000E+00  0.1200E+02
 -10.394  0.0000E+00  0.1200E+02
 -10.384  0.0000E+00  0.1200E+02
 -10.374  0.0000E+00  0.1200E+02
 -10.364  0.0000E+00  0.1200E+02
 -10.354  0.0000E+00  0.1200E+02
 -10.344  0.0000E+00  0.1200E+02
 -10.334  0.0000E+00  0.1200E+02
 -10.324  0.0000E+00  0.1200E+02
 -10.314  0.0000E+00  0.1200E+02
 -10.304  0.0000E+00  0.1200E+02
 -10.294  0.0000E+00  0.1200E+02
 -10.284  0.0000E+00  0.1200E+02
 -10.274  0.0000E+00  0.1200E+02
 -10.264  0.0000E+00  0.1200E+02
 -10.254  0.0000E+00  0.1200E+02
 -10.244  0.0000E+00  0.1200E+02
 -10.234  0.0000E+00  0.1200E+02
 -10.224  0.0000E+00  0.1200E+02
 -10.214  0.0000E+00  0.1200E+02
 -10.204  0.0000E+00  0.1200E+02
 -10.194  0.0000E+00  0.1200E+02
 -10.184  0.0000E+00  0.1200E+02
 -10.174  0.0000E+00  0.1200E+02
 -10.164  0.0000E+00  0.1200E+02
 -10.154  0.0000E+00  0.1200E+02
 -10.144  0.0000E+00  0.1200E+02
 -10.134  0.0000E+00  0.1200E+02
 -10.124  0.0000E+00  0.1200E+02
 -10.114  0.0000E+00  0.1200E+02
 -10.104  0.0000E+00  0.1200E+02
 -10.094  0.0000E+00  0.1200E+02
 -10.084  0.0000E+00  0.1200E+02
 -10.074  0.0000E+00  0.1200E+02
 -10.064  0.0000E+00  0.1200E+02
 -10.054  0.0000E+00  0.1200E+02
 -10.044  0.0000E+00  0.1200E+02
 -10.034  0.0000E+00  0.1200E+02
 -10.024  0.0000E+00  0.1200E+02
 -10.014  0.0000E+00  0.1200E+02
 -10.004  0.0000E+00  0.1200E+02
  -9.994  0.0000E+00  0.1200E+02
  -9.984  0.0000E+00  0.1200E+02
  -9.974  0.0000E+00  0.1200E+02
  -9.964  0.0000E+00  0.1200E+02
  -9.954  0.0000E+00  0.1200E+02
  -9.944  0.0000E+00  0.1200E+02
  -9.934  0.0000E+00  0.1200E+02
  -9.924  0.0000E+00  0.1200E+02
  -9.914  0.0000E+00  0.1200E+02
  -9.904  0.0000E+00  0.1200E+02
  -9.894  0.0000E+00  0.1200E+02
  -9.884  0.0000E+00  0.1200E+02
  -9.874  0.0000E+00  0.1200E+02
  -9.864  0.0000E+00  0.1200E+02
  -9.854  0.0000E+00  0.1200E+02
  -9.844  0.0000E+00  0.1200E+02
  -9.834  0.0000E+00  0.1200E+02
  -9.824  0.0000E+00  0.1200E+02
  -9.814  0.0000E+00  0.1200E+02
  -9.804  0.0000E+00  0.1200E+02
  -9.794  0.0000E+00  0.1200E+02
  -9.784  0.0000E+00  0.1200E+02
  -9.774  0.0000E+00  0.1200E+02
  -9.764  0.0000E+00  0.1200E+02
  -9.754  0.0000E+00  0.1200E+02
  -9.744  0.0000E+00  0.1200E+02
  -9.734  0.0000E+00  0.1200E+02
  -9.724  0.0000E+00  0.1200E+02
  -9.714  0.0000E+00  0.1200E+02
  -9.704  0.0000E+00  0.1200E+02
  -9.694  0.0000E+00  0.1200E+02
  -9.684  0.0000E+00  0.1200E+02
  -9.674  0.0000E+00  0.1200E+02
  -9.664  0.0000E+00  0.1200E+02
  -9.654  0.0000E+00  0.1200E+02
  -9.644  0.0000E+00  0.1200E+02
  -9.634  0.0000E+00  0.1200E+02
  -9.624  0.0000E+00  0.1200E+02
  -9.614  0.0000E+00  0.1200E+02
  -9.604  0.0000E+00  0.1200E+02
  -9.594  0.0000E+00  0.1200E+02
  -9.584  0.0000E+00  0.1200E+02
  -9.574  0.0000E+00  0.1200E+02
  -9.564  0.0000E+00  0.1200E+02
  -9.554  0.0000E+00  0.1200E+02
  -9.544  0.0000E+00  0.1200E+02
  -9.534  0.0000E+00  0.1200E+02
  -9.524  0.0000E+00  0.1200E+02
  -9.514  0.0000E+00  0.1200E+02
  -9.504  0.0000E+00  0.1200E+02
  -9.494  0.0000E+00  0.1200E+02
  -9.484  0.0000E+00  0.1200E+02
  -9.474  0.0000E+00  0.1200E+02
  -9.464  0.0000E+00  0.1200E+02
  -9.454  0.0000E+00  0.1200E+02
  -9.444  0.0000E+00  0.1200E+02
  -9.434  0.0000E+00  0.1200E+02
  -9.424  0.0000E+00  0.1200E+02
  -9.414  0.0000E+00  0.1200E+02
  -9.404  0.0000E+00  0.1200E+02
  -9.394  0.0000E+00  0.1200E+02
  -9.384  0.0000E+00  0.1200E+02
  -9.374  0.0000E+00  0.1200E+02
  -9.364  0.0000E+00  0.1200E+02
  -9.354  0.0000E+00  0.1200E+02
  -9.344  0.0000E+00  0.1200E+02
  -9.334  0.0000E+00  0.1200E+02
  -9.324  0.0000E+00  0.1200E+02
  -9.314  0.0000E+00  0.1200E+02
  -9.304  0.0000E+00  0.1200E+02
  -9.294  0.0000E+00  0.1200E+02
  -9.284  0.0000E+00  0.1200E+02
  -9.274  0.0000E+00  0.1200E+02
  -9.264  0.0000E+00  0.1200E+02
  -9.254  0.0000E+00  0.1200E+02
  -9.244  0.0000E+00  0.1200E+02
  -9.234  0.0000E+00  0.1200E+02
  -9.224  0.0000E+00  0.1200E+02
  -9.214  0.0000E+00  0.1200E+02
  -9.204  0.0000E+00  0.1200E+02
  -9.194  0.0000E+00  0.1200E+02
  -9.184  0.0000E+00  0.1200E+02
  -9.174  0.0000E+00  0.1200E+02
  -9.164  0.0000E+00  0.1200E+02
  -9.154  0.0000E+00  0.1200E+02
  -9.144  0.0000E+00  0.1200E+02
  -9.134  0.0000E+00  0.1200E+02
  -9.124  0.0000E+00  0.1200E+02
  -9.114  0.0000E+00  0.1200E+02
  -9.104  0.0000E+00  0.1200E+02
  -9.094  0.0000E+00  0.1200E+02
  -9.084  0.0000E+00  0.1200E+02
  -9.074  0.0000E+00  0.1200E+02
  -9.064  0.0000E+00  0.1200E+02
  -9.054  0.0000E+00  0.1200E+02
  -9.044  0.0000E+00  0.1200E+02
  -9.034  0.0000E+00  0.1200E+02
  -9.024  0.0000E+00  0.1200E+02
  -9.014  0.0000E+00  0.1200E+02
  -9.004  0.0000E+00  0.1200E+02
  -8.994  0.0000E+00  0.1200E+02
  -8.984  0.0000E+00  0.1200E+02
  -8.974  0.0000E+00  0.1200E+02
  -8.964  0.0000E+00  0.1200E+02
  -8.954  0.0000E+00  0.1200E+02
  -8.944  0.0000E+00  0.1200E+02
  -8.934  0.0000E+00  0.1200E+02
  -8.924  0.0000E+00  0.1200E+02
  -8.914  0.0000E+00  0.1200E+02
  -8.904  0.0000E+00  0.1200E+02
  -8.894  0.0000E+00  0.1200E+02
  -8.884  0.0000E+00  0.1200E+02
  -8.874  0.0000E+00  0.1200E+02
  -8.864  0.0000E+00  0.1200E+02
  -8.854  0.0000E+00  0.1200E+02
  -8.844  0.0000E+00  0.1200E+02
  -8.834  0.0000E+00  0.1200E+02
  -8.824  0.0000E+00  0.1200E+02
  -8.814  0.0000E+00  0.1200E+02
  -8.804  0.0000E+00  0.1200E+02
  -8.794  0.0000E+00  0.1200E+02
  -8.784  0.0000E+00  0.1200E+02
  -8.774  0.0000E+00  0.1200E+02
  -8.764  0.0000E+00  0.1200E+02
  -8.754  0.0000E+00  0.1200E+02
  -8.744  0.0000E+00  0.1200E+02
  -8.734  0.0000E+00  0.1200E+02
  -8.724  0.0000E+00  0.1200E+02
  -8.714  0.0000E+00  0.1200E+02
  -8.704  0.0000E+00  0.1200E+02
  -8.694  0.0000E+00  0.1200E+02
  -8.684  0.0000E+00  0.1200E+02
  -8.674  0.0000E+00  0.1200E+02
  -8.664  0.0000E+00  0.1200E+02
  -8.654  0.0000E+00  0.1200E+02
  -8.644  0.0000E+00  0.1200E+02
  -8.634  0.0000E+00  0.1200E+02
  -8.624  0.0000E+00  0.1200E+02
  -8.614  0.0000E+00  0.1200E+02
  -8.604  0.0000E+00  0.1200E+02
  -8.594  0.0000E+00  0.1200E+02
  -8.584  0.0000E+00  0.1200E+02
  -8.574  0.0000E+00  0.1200E+02
  -8.564  0.0000E+00  0.1200E+02
  -8.554  0.0000E+00  0.1200E+02
  -8.544  0.0000E+00  0.1200E+02
  -8.534  0.0000E+00  0.1200E+02
  -8.524  0.0000E+00  0.1200E+02
  -8.514  0.0000E+00  0.1200E+02
  -8.504  0.0000E+00  0.1200E+02
  -8.494  0.0000E+00  0.1200E+02
  -8.484  0.0000E+00  0.1200E+02
  -8.474  0.0000E+00  0.1200E+02
  -8.464  0.0000E+00  0.1200E+02
  -8.454  0.0000E+00  0.1200E+02
  -8.444  0.0000E+00  0.1200E+02
  -8.434  0.0000E+00  0.1200E+02
  -8.424  0.0000E+00  0.1200E+02
  -8.414  0.0000E+00  0.1200E+02
  -8.404  0.0000E+00  0.1200E+02
  -8.394  0.0000E+00  0.1200E+02
  -8.384  0.0000E+00  0.1200E+02
  -8.374  0.0000E+00  0.1200E+02
  -8.364  0.0000E+00  0.1200E+02
  -8.354  0.0000E+00  0.1200E+02
  -8.344  0.0000E+00  0.1200E+02
  -8.334  0.0000E+00  0.1200E+02
  -8.324  0.0000E+00  0.1200E+02
  -8.314  0.0000E+00  0.1200E+02
  -8.304  0.0000E+00  0.1200E+02
  -8.294  0.0000E+00  0.1200E+02
  -8.284  0.0000E+00  0.1200E+02
  -8.274  0.0000E+00  0.1200E+02
  -8.264  0.0000E+00  0.1200E+02
  -8.254  0.0000E+00  0.1200E+02
  -8.244  0.0000E+00  0.1200E+02
  -8.234  0.0000E+00  0.1200E+02
  -8.224  0.0000E+00  0.1200E+02
  -8.214  0.0000E+00  0.1200E+02
  -8.204  0.0000E+00  0.1200E+02
  -8.194  0.0000E+00  0.1200E+02
  -8.184  0.0000E+00  0.1200E+02
  -8.174  0.0000E+00  0.1200E+02
  -8.164  0.0000E+00  0.1200E+02
  -8.154  0.0000E+00  0.1200E+02
  -8.144  0.0000E+00  0.1200E+02
  -8.134  0.0000E+00  0.1200E+02
  -8.124  0.0000E+00  0.1200E+02
  -8.114  0.0000E+00  0.1200E+02
  -8.104  0.0000E+00  0.1200E+02
  -8.094  0.0000E+00  0.1200E+02
  -8.084  0.0000E+00  0.1200E+02
  -8.074  0.0000E+00  0.1200E+02
  -8.064  0.0000E+00  0.1200E+02
  -8.054  0.0000E+00  0.1200E+02
  -8.044  0.0000E+00  0.1200E+02
  -8.034  0.0000E+00  0.1200E+02
  -8.024  0.0000E+00  0.1200E+02
  -8.014  0.0000E+00  0.1200E+02
  -8.004  0.0000E+00  0.1200E+02
  -7.994  0.0000E+00  0.1200E+02
  -7.984  0.0000E+00  0.1200E+02
  -7.974  0.0000E+00  0.1200E+02
  -7.964  0.0000E+00  0.1200E+02
  -7.954  0.0000E+00  0.1200E+02
  -7.944  0.0000E+00  0.1200E+02
  -7.934  0.0000E+00  0.1200E+02
  -7.924  0.0000E+00  0.1200E+02
  -7.914  0.0000E+00  0.1200E+02
  -7.904  0.0000E+00  0.1200E+02
  -7.894  0.0000E+00  0.1200E+02
  -7.884  0.0000E+00  0.1200E+02
  -7.874  0.0000E+00  0.1200E+02
  -7.864  0.0000E+00  0.1200E+02
  -7.854  0.0000E+00  0.1200E+02
  -7.844  0.0000E+00  0.1200E+02
  -7.834  0.0000E+00  0.1200E+02
  -7.824  0.0000E+00  0.1200E+02
  -7.814  0.0000E+00  0.1200E+02
  -7.804  0.0000E+00  0.1200E+02
  -7.794  0.0000E+00  0.1200E+02
  -7.784  0.0000E+00  0.1200E+02
  -7.774  0.0000E+00  0.1200E+02
  -7.764  0.0000E+00  0.1200E+02
  -7.754  0.0000E+00  0.1200E+02
  -7.744  0.0000E+00  0.1200E+02
  -7.734  0.0000E+00  0.1200E+02
  -7.724  0.0000E+00  0.1200E+02
  -7.714  0.0000E+00  0.1200E+02
  -7.704  0.0000E+00  0.1200E+02
  -7.694  0.0000E+00  0.1200E+02
  -7.684  0.0000E+00  0.1200E+02
  -7.674  0.0000E+00  0.1200E+02
  -7.664  0.0000E+00  0.1200E+02
  -7.654  0.0000E+00  0.1200E+02
  -7.644  0.0000E+00  0.1200E+02
  -7.634  0.0000E+00  0.1200E+02
  -7.624  0.0000E+00  0.1200E+02
  -7.614  0.0000E+00  0.1200E+02
  -7.604  0.0000E+00  0.1200E+02
  -7.594  0.0000E+00  0.1200E+02
  -7.584  0.0000E+00  0.1200E+02
  -7.574  0.0000E+00  0.1200E+02
  -7.564  0.0000E+00  0.1200E+02
  -7.554  0.0000E+00  0.1200E+02
  -7.544  0.0000E+00  0.1200E+02
  -7.534  0.0000E+00  0.1200E+02
  -7.524  0.0000E+00  0.1200E+02
  -7.514  0.0000E+00  0.1200E+02
  -7.504  0.0000E+00  0.1200E+02
  -7.494  0.0000E+00  0.1200E+02
  -7.484  0.0000E+00  0.1200E+02
  -7.474  0.0000E+00  0.1200E+02
  -7.464  0.0000E+00  0.1200E+02
  -7.454  0.0000E+00  0.1200E+02
  -7.444  0.0000E+00  0.1200E+02
  -7.434  0.0000E+00  0.1200E+02
  -7.424  0.0000E+00  0.1200E+02
  -7.414  0.0000E+00  0.1200E+02
  -7.404  0.0000E+00  0.1200E+02
  -7.394  0.0000E+00  0.1200E+02
  -7.384  0.0000E+00  0.1200E+02
  -7.374  0.0000E+00  0.1200E+02
  -7.364  0.0000E+00  0.1200E+02
  -7.354  0.0000E+00  0.1200E+02
  -7.344  0.0000E+00  0.1200E+02
  -7.334  0.0000E+00  0.1200E+02
  -7.324  0.0000E+00  0.1200E+02
  -7.314  0.0000E+00  0.1200E+02
  -7.304  0.0000E+00  0.1200E+02
  -7.294  0.0000E+00  0.1200E+02
  -7.284  0.0000E+00  0.1200E+02
  -7.274  0.0000E+00  0.1200E+02
  -7.264  0.0000E+00  0.1200E+02
  -7.254  0.0000E+00  0.1200E+02
  -7.244  0.0000E+00  0.1200E+02
  -7.234  0.0000E+00  0.1200E+02
  -7.224  0.0000E+00  0.1200E+02
  -7.214  0.0000E+00  0.1200E+02
  -7.204  0.0000E+00  0.1200E+02
  -7.194  0.0000E+00  0.1200E+02
  -7.184  0.0000E+00  0.1200E+02
  -7.174  0.0000E+00  0.1200E+02
  -7.164  0.0000E+00  0.1200E+02
  -7.154  0.0000E+00  0.1200E+02
  -7.144  0.0000E+00  0.1200E+02
  -7.134  0.0000E+00  0.1200E+02
  -7.124  0.0000E+00  0.1200E+02
  -7.114  0.0000E+00  0.1200E+02
  -7.104  0.0000E+00  0.1200E+02
  -7.094  0.0000E+00  0.1200E+02
  -7.084  0.0000E+00  0.1200E+02
  -7.074  0.0000E+00  0.1200E+02
  -7.064  0.0000E+00  0.1200E+02
  -7.054  0.0000E+00  0.1200E+02
  -7.044  0.0000E+00  0.1200E+02
  -7.034  0.0000E+00  0.1200E+02
  -7.024  0.0000E+00  0.1200E+02
  -7.014  0.0000E+00  0.1200E+02
  -7.004  0.0000E+00  0.1200E+02
  -6.994  0.0000E+00  0.1200E+02
  -6.984  0.0000E+00  0.1200E+02
  -6.974  0.0000E+00  0.1200E+02
  -6.964  0.0000E+00  0.1200E+02
  -6.954  0.0000E+00  0.1200E+02
  -6.944  0.0000E+00  0.1200E+02
  -6.934  0.0000E+00  0.1200E+02
  -6.924  0.0000E+00  0.1200E+02
  -6.914  0.0000E+00  0.1200E+02
  -6.904  0.0000E+00  0.1200E+02
  -6.894  0.0000E+00  0.1200E+02
  -6.884  0.0000E+00  0.1200E+02
  -6.874  0.0000E+00  0.1200E+02
  -6.864  0.0000E+00  0.1200E+02
  -6.854  0.0000E+00  0.1200E+02
  -6.844  0.0000E+00  0.1200E+02
  -6.834  0.0000E+00  0.1200E+02
  -6.824  0.0000E+00  0.1200E+02
  -6.814  0.0000E+00  0.1200E+02
  -6.804  0.0000E+00  0.1200E+02
  -6.794  0.0000E+00  0.1200E+02
  -6.784  0.0000E+00  0.1200E+02
  -6.774  0.0000E+00  0.1200E+02
  -6.764  0.0000E+00  0.1200E+02
  -6.754  0.0000E+00  0.1200E+02
  -6.744  0.0000E+00  0.1200E+02
  -6.734  0.0000E+00  0.1200E+02
  -6.724  0.0000E+00  0.1200E+02
  -6.714  0.0000E+00  0.1200E+02
  -6.704  0.0000E+00  0.1200E+02
  -6.694  0.0000E+00  0.1200E+02
  -6.684  0.0000E+00  0.1200E+02
  -6.674  0.0000E+00  0.1200E+02
  -6.664  0.0000E+00  0.1200E+02
  -6.654  0.0000E+00  0.1200E+02
  -6.644  0.0000E+00  0.1200E+02
  -6.634  0.0000E+00  0.1200E+02
  -6.624  0.3064E+00  0.1200E+02
  -6.614  0.3176E+00  0.1200E+02
  -6.604  0.3290E+00  0.1201E+02
  -6.594  0.3406E+00  0.1201E+02
  -6.584  0.3525E+00  0.1201E+02
  -6.574  0.3646E+00  0.1202E+02
  -6.564  0.3769E+00  0.1202E+02
  -6.554  0.3895E+00  0.1203E+02
  -6.544  0.4022E+00  0.1203E+02
  -6.534  0.4152E+00  0.1203E+02
  -6.524  0.4284E+00  0.1204E+02
  -6.514  0.4418E+00  0.1204E+02
  -6.504  0.4555E+00  0.1205E+02
  -6.494  0.4694E+00  0.1205E+02
  -6.484  0.4835E+00  0.1206E+02
  -6.474  0.4978E+00  0.1206E+02
  -6.464  0.5123E+00  0.1207E+02
  -6.454  0.5271E+00  0.1207E+02
  -6.444  0.5421E+00  0.1208E+02
  -6.434  0.5573E+00  0.1208E+02
  -6.424  0.5727E+00  0.1209E+02
  -6.414  0.5911E+00  0.1209E+02
  -6.404  0.6108E+00  0.1210E+02
  -6.394  0.6308E+00  0.1211E+02
  -6.384  0.6511E+00  0.1211E+02
  -6.374  0.6717E+00  0.1212E+02
  -6.364  0.6925E+00  0.1213E+02
  -6.354  0.7136E+00  0.1213E+02
  -6.344  0.7350E+00  0.1214E+02
  -6.334  0.7566E+00  0.1215E+02
  -6.324  0.7785E+00  0.1215E+02
  -6.314  0.8007E+00  0.1216E+02
  -6.304  0.8231E+00  0.1217E+02
  -6.294  0.8458E+00  0.1218E+02
  -6.284  0.8688E+00  0.1219E+02
  -6.274  0.8920E+00  0.1220E+02
  -6.264  0.9155E+00  0.1221E+02
  -6.254  0.9393E+00  0.1222E+02
  -6.244  0.9634E+00  0.1222E+02
  -6.234  0.9877E+00  0.1223E+02
  -6.224  0.1012E+01  0.1224E+02
  -6.214  0.1037E+01  0.1225E+02
  -6.204  0.1062E+01  0.1227E+02
  -6.194  0.1088E+01  0.1228E+02
  -6.184  0.1113E+01  0.1229E+02
  -6.174  0.1139E+01  0.1230E+02
  -6.164  0.1165E+01  0.1231E+02
  -6.154  0.1192E+01  0.1232E+02
  -6.144  0.1219E+01  0.1233E+02
  -6.134  0.1246E+01  0.1235E+02
  -6.124  0.1273E+01  0.1236E+02
  -6.114  0.1300E+01  0.1237E+02
  -6.104  0.1328E+01  0.1238E+02
  -6.094  0.1986E+01  0.1240E+02
  -6.084  0.2046E+01  0.1242E+02
  -6.074  0.2134E+01  0.1244E+02
  -6.064  0.2249E+01  0.1246E+02
  -6.054  0.2371E+01  0.1249E+02
  -6.044  0.2497E+01  0.1251E+02
  -6.034  0.2626E+01  0.1254E+02
  -6.024  0.2758E+01  0.1256E+02
  -6.014  0.2895E+01  0.1259E+02
  -6.004  0.3035E+01  0.1262E+02
  -5.994  0.3211E+01  0.1265E+02
  -5.984  0.3417E+01  0.1269E+02
  -5.974  0.3625E+01  0.1272E+02
  -5.964  0.3835E+01  0.1276E+02
  -5.954  0.4047E+01  0.1280E+02
  -5.944  0.4422E+01  0.1284E+02
  -5.934  0.4665E+01  0.1289E+02
  -5.924  0.4909E+01  0.1293E+02
  -5.914  0.5155E+01  0.1298E+02
  -5.904  0.5403E+01  0.1304E+02
  -5.894  0.7248E+01  0.1310E+02
  -5.884  0.1072E+02  0.1319E+02
  -5.874  0.1450E+02  0.1331E+02
  -5.864  0.1256E+02  0.1347E+02
  -5.854  0.4130E+01  0.1354E+02
  -5.844  0.3844E+01  0.1358E+02
  -5.834  0.3573E+01  0.1361E+02
  -5.824  0.3319E+01  0.1365E+02
  -5.814  0.3080E+01  0.1368E+02
  -5.804  0.2857E+01  0.1371E+02
  -5.794  0.2651E+01  0.1374E+02
  -5.784  0.2460E+01  0.1376E+02
  -5.774  0.2285E+01  0.1379E+02
  -5.764  0.2125E+01  0.1381E+02
  -5.754  0.1982E+01  0.1383E+02
  -5.744  0.1855E+01  0.1385E+02
  -5.734  0.1513E+01  0.1386E+02
  -5.724  0.1465E+01  0.1388E+02
  -5.714  0.1354E+01  0.1389E+02
  -5.704  0.1248E+01  0.1391E+02
  -5.694  0.1145E+01  0.1392E+02
  -5.684  0.1046E+01  0.1393E+02
  -5.674  0.9507E+00  0.1394E+02
  -5.664  0.8596E+00  0.1395E+02
  -5.654  0.7724E+00  0.1396E+02
  -5.644  0.6893E+00  0.1396E+02
  -5.634  0.6100E+00  0.1397E+02
  -5.624  0.5347E+00  0.1398E+02
  -5.614  0.4634E+00  0.1398E+02
  -5.604  0.3960E+00  0.1399E+02
  -5.594  0.3326E+00  0.1399E+02
  -5.584  0.2731E+00  0.1399E+02
  -5.574  0.2175E+00  0.1400E+02
  -5.564  0.1659E+00  0.1400E+02
  -5.554  0.1182E+00  0.1400E+02
  -5.544  0.7452E-01  0.1400E+02
  -5.534  0.3475E-01  0.1400E+02
  -5.524  0.0000E+00  0.1400E+02
  -5.514  0.0000E+00  0.1400E+02
  -5.504  0.0000E+00  0.1400E+02
  -5.494  0.0000E+00  0.1400E+02
  -5.484  0.0000E+00  0.1400E+02
  -5.474  0.0000E+00  0.1400E+02
  -5.464  0.0000E+00  0.1400E+02
  -5.454  0.0000E+00  0.1400E+02
  -5.444  0.0000E+00  0.1400E+02
  -5.434  0.0000E+00  0.1400E+02
  -5.424  0.0000E+00  0.1400E+02
  -5.414  0.0000E+00  0.1400E+02
  -5.404  0.0000E+00  0.1400E+02
  -5.394  0.0000E+00  0.1400E+02
  -5.384  0.0000E+00  0.1400E+02
  -5.374  0.0000E+00  0.1400E+02
  -5.364  0.0000E+00  0.1400E+02
  -5.354  0.0000E+00  0.1400E+02
  -5.344  0.0000E+00  0.1400E+02
  -5.334  0.0000E+00  0.1400E+02
  -5.324  0.0000E+00  0.1400E+02
  -5.314  0.0000E+00  0.1400E+02
  -5.304  0.0000E+00  0.1400E+02
  -5.294  0.0000E+00  0.1400E+02
  -5.284  0.0000E+00  0.1400E+02
  -5.274  0.0000E+00  0.1400E+02
  -5.264  0.0000E+00  0.1400E+02
  -5.254  0.0000E+00  0.1400E+02
  -5.244  0.0000E+00  0.1400E+02
  -5.234  0.0000E+00  0.1400E+02
  -5.224  0.0000E+00  0.1400E+02
  -5.214  0.0000E+00  0.1400E+02
  -5.204  0.0000E+00  0.1400E+02
  -5.194  0.1202E+01  0.1400E+02
  -5.184  0.1124E+01  0.1402E+02
  -5.174  0.1046E+01  0.1403E+02
  -5.164  0.9680E+00  0.1404E+02
  -5.154  0.8892E+00  0.1405E+02
  -5.144  0.8391E+00  0.1405E+02
  -5.134  0.8741E+00  0.1406E+02
  -5.124  0.9097E+00  0.1407E+02
  -5.114  0.9461E+00  0.1408E+02
  -5.104  0.9832E+00  0.1409E+02
  -5.094  0.1021E+01  0.1410E+02
  -5.084  0.1059E+01  0.1411E+02
  -5.074  0.1099E+01  0.1412E+02
  -5.064  0.1139E+01  0.1413E+02
  -5.054  0.1179E+01  0.1414E+02
  -5.044  0.1220E+01  0.1416E+02
  -5.034  0.1262E+01  0.1417E+02
  -5.024  0.1305E+01  0.1418E+02
  -5.014  0.1349E+01  0.1420E+02
  -5.004  0.1393E+01  0.1421E+02
  -4.994  0.1437E+01  0.1422E+02
  -4.984  0.1475E+01  0.1424E+02
  -4.974  0.1480E+01  0.1425E+02
  -4.964  0.1497E+01  0.1427E+02
  -4.954  0.1527E+01  0.1428E+02
  -4.944  0.1727E+01  0.1430E+02
  -4.934  0.1841E+01  0.1432E+02
  -4.924  0.1960E+01  0.1434E+02
  -4.914  0.2083E+01  0.1436E+02
  -4.904  0.2209E+01  0.1438E+02
  -4.894  0.2340E+01  0.1440E+02
  -4.884  0.2474E+01  0.1442E+02
  -4.874  0.2612E+01  0.1445E+02
  -4.864  0.2754E+01  0.1448E+02
  -4.854  0.2900E+01  0.1450E+02
  -4.844  0.3049E+01  0.1453E+02
  -4.834  0.3203E+01  0.1457E+02
  -4.824  0.3388E+01  0.1460E+02
  -4.814  0.3688E+01  0.1463E+02
  -4.804  0.4005E+01  0.1467E+02
  -4.794  0.4339E+01  0.1471E+02
  -4.784  0.4688E+01  0.1476E+02
  -4.774  0.4418E+01  0.1481E+02
  -4.764  0.4520E+01  0.1485E+02
  -4.754  0.4609E+01  0.1490E+02
  -4.744  0.4685E+01  0.1494E+02
  -4.734  0.4747E+01  0.1499E+02
  -4.724  0.4853E+01  0.1504E+02
  -4.714  0.4731E+01  0.1509E+02
  -4.704  0.4609E+01  0.1513E+02
  -4.694  0.4487E+01  0.1518E+02
  -4.684  0.4364E+01  0.1522E+02
  -4.674  0.4242E+01  0.1527E+02
  -4.664  0.4119E+01  0.1531E+02
  -4.654  0.3995E+01  0.1535E+02
  -4.644  0.3872E+01  0.1539E+02
  -4.634  0.3748E+01  0.1543E+02
  -4.624  0.3624E+01  0.1546E+02
  -4.614  0.3500E+01  0.1550E+02
  -4.604  0.3085E+01  0.1553E+02
  -4.594  0.2935E+01  0.1556E+02
  -4.584  0.2780E+01  0.1559E+02
  -4.574  0.2622E+01  0.1562E+02
  -4.564  0.2460E+01  0.1564E+02
  -4.554  0.2294E+01  0.1567E+02
  -4.544  0.2124E+01  0.1569E+02
  -4.534  0.1951E+01  0.1571E+02
  -4.524  0.1774E+01  0.1573E+02
  -4.514  0.1592E+01  0.1574E+02
  -4.504  0.1413E+01  0.1576E+02
  -4.494  0.1277E+01  0.1577E+02
  -4.484  0.1183E+01  0.1579E+02
  -4.474  0.1136E+01  0.1580E+02
  -4.464  0.1104E+01  0.1581E+02
  -4.454  0.1073E+01  0.1582E+02
  -4.444  0.1042E+01  0.1583E+02
  -4.434  0.1012E+01  0.1584E+02
  -4.424  0.9819E+00  0.1585E+02
  -4.414  0.9527E+00  0.1586E+02
  -4.404  0.9238E+00  0.1587E+02
  -4.394  0.8955E+00  0.1588E+02
  -4.384  0.8677E+00  0.1589E+02
  -4.374  0.8403E+00  0.1590E+02
  -4.364  0.8135E+00  0.1590E+02
  -4.354  0.7871E+00  0.1591E+02
  -4.344  0.7612E+00  0.1592E+02
  -4.334  0.7358E+00  0.1593E+02
  -4.324  0.7109E+00  0.1593E+02
  -4.314  0.7016E+00  0.1594E+02
  -4.304  0.6931E+00  0.1595E+02
  -4.294  0.6849E+00  0.1595E+02
  -4.284  0.6770E+00  0.1596E+02
  -4.274  0.6694E+00  0.1597E+02
  -4.264  0.6622E+00  0.1598E+02
  -4.254  0.6552E+00  0.1598E+02
  -4.244  0.6486E+00  0.1599E+02
  -4.234  0.6423E+00  0.1599E+02
  -4.224  0.0000E+00  0.1600E+02
  -4.214  0.0000E+00  0.1600E+02
  -4.204  0.0000E+00  0.1600E+02
  -4.194  0.0000E+00  0.1600E+02
  -4.184  0.0000E+00  0.1600E+02
  -4.174  0.0000E+00  0.1600E+02
  -4.164  0.0000E+00  0.1600E+02
  -4.154  0.0000E+00  0.1600E+02
  -4.144  0.0000E+00  0.1600E+02
  -4.134  0.0000E+00  0.1600E+02
  -4.124  0.0000E+00  0.1600E+02
  -4.114  0.0000E+00  0.1600E+02
  -4.104  0.0000E+00  0.1600E+02
  -4.094  0.0000E+00  0.1600E+02
  -4.084  0.0000E+00  0.1600E+02
  -4.074  0.0000E+00  0.1600E+02
  -4.064  0.0000E+00  0.1600E+02
  -4.054  0.0000E+00  0.1600E+02
  -4.044  0.0000E+00  0.1600E+02
  -4.034  0.0000E+00  0.1600E+02
  -4.024  0.0000E+00  0.1600E+02
  -4.014  0.0000E+00  0.1600E+02
  -4.004  0.7833E-01  0.1600E+02
  -3.994  0.2122E+00  0.1600E+02
  -3.984  0.3636E+00  0.1600E+02
  -3.974  0.5324E+00  0.1601E+02
  -3.964  0.7186E+00  0.1602E+02
  -3.954  0.9223E+00  0.1602E+02
  -3.944  0.1143E+01  0.1603E+02
  -3.934  0.1387E+01  0.1605E+02
  -3.924  0.1634E+01  0.1606E+02
  -3.914  0.1869E+01  0.1608E+02
  -3.904  0.2092E+01  0.1610E+02
  -3.894  0.2303E+01  0.1612E+02
  -3.884  0.2503E+01  0.1614E+02
  -3.874  0.3764E+01  0.1617E+02
  -3.864  0.3784E+01  0.1621E+02
  -3.854  0.3790E+01  0.1625E+02
  -3.844  0.3782E+01  0.1629E+02
  -3.834  0.3759E+01  0.1633E+02
  -3.824  0.3722E+01  0.1636E+02
  -3.814  0.3671E+01  0.1640E+02
  -3.804  0.3606E+01  0.1644E+02
  -3.794  0.3526E+01  0.1647E+02
  -3.784  0.3439E+01  0.1651E+02
  -3.774  0.3099E+01  0.1654E+02
  -3.764  0.3110E+01  0.1657E+02
  -3.754  0.3120E+01  0.1660E+02
  -3.744  0.3127E+01  0.1663E+02
  -3.734  0.3132E+01  0.1666E+02
  -3.724  0.3135E+01  0.1670E+02
  -3.714  0.3136E+01  0.1673E+02
  -3.704  0.3135E+01  0.1676E+02
  -3.694  0.3133E+01  0.1679E+02
  -3.684  0.3128E+01  0.1682E+02
  -3.674  0.3121E+01  0.1685E+02
  -3.664  0.3112E+01  0.1688E+02
  -3.654  0.3102E+01  0.1691E+02
  -3.644  0.3089E+01  0.1695E+02
  -3.634  0.3074E+01  0.1698E+02
  -3.624  0.3060E+01  0.1701E+02
  -3.614  0.3058E+01  0.1704E+02
  -3.604  0.3055E+01  0.1707E+02
  -3.594  0.3052E+01  0.1710E+02
  -3.584  0.3530E+01  0.1713E+02
  -3.574  0.3530E+01  0.1716E+02
  -3.564  0.3448E+01  0.1720E+02
  -3.554  0.3367E+01  0.1723E+02
  -3.544  0.3287E+01  0.1727E+02
  -3.534  0.3209E+01  0.1730E+02
  -3.524  0.3131E+01  0.1733E+02
  -3.514  0.3055E+01  0.1736E+02
  -3.504  0.2980E+01  0.1739E+02
  -3.494  0.2906E+01  0.1742E+02
  -3.484  0.2389E+01  0.1745E+02
  -3.474  0.2309E+01  0.1747E+02
  -3.464  0.2232E+01  0.1750E+02
  -3.454  0.2155E+01  0.1752E+02
  -3.444  0.2081E+01  0.1754E+02
  -3.434  0.2008E+01  0.1756E+02
  -3.424  0.1938E+01  0.1758E+02
  -3.414  0.1869E+01  0.1760E+02
  -3.404  0.1801E+01  0.1762E+02
  -3.394  0.1736E+01  0.1763E+02
  -3.384  0.1672E+01  0.1765E+02
  -3.374  0.1642E+01  0.1767E+02
  -3.364  0.1624E+01  0.1768E+02
  -3.354  0.1577E+01  0.1770E+02
  -3.344  0.1531E+01  0.1772E+02
  -3.334  0.1485E+01  0.1773E+02
  -3.324  0.1440E+01  0.1775E+02
  -3.314  0.1395E+01  0.1776E+02
  -3.304  0.1351E+01  0.1777E+02
  -3.294  0.1307E+01  0.1779E+02
  -3.284  0.1264E+01  0.1780E+02
  -3.274  0.1222E+01  0.1781E+02
  -3.264  0.1180E+01  0.1782E+02
  -3.254  0.1139E+01  0.1784E+02
  -3.244  0.1099E+01  0.1785E+02
  -3.234  0.1058E+01  0.1786E+02
  -3.224  0.1019E+01  0.1787E+02
  -3.214  0.9802E+00  0.1788E+02
  -3.204  0.9420E+00  0.1789E+02
  -3.194  0.9043E+00  0.1790E+02
  -3.184  0.8672E+00  0.1791E+02
  -3.174  0.8307E+00  0.1791E+02
  -3.164  0.7970E+00  0.1792E+02
  -3.154  0.7730E+00  0.1793E+02
  -3.144  0.7492E+00  0.1794E+02
  -3.134  0.7256E+00  0.1795E+02
  -3.124  0.7021E+00  0.1795E+02
  -3.114  0.6788E+00  0.1796E+02
  -3.104  0.6556E+00  0.1797E+02
  -3.094  0.6327E+00  0.1797E+02
  -3.084  0.6099E+00  0.1798E+02
  -3.074  0.5873E+00  0.1798E+02
  -3.064  0.5648E+00  0.1799E+02
  -3.054  0.5426E+00  0.1800E+02
  -3.044  0.0000E+00  0.1800E+02
  -3.034  0.0000E+00  0.1800E+02
  -3.024  0.0000E+00  0.1800E+02
  -3.014  0.0000E+00  0.1800E+02
  -3.004  0.4240E+00  0.1800E+02
  -2.994  0.1089E+01  0.1801E+02
  -2.984  0.1418E+01  0.1802E+02
  -2.974  0.1814E+01  0.1804E+02
  -2.964  0.2277E+01  0.1806E+02
  -2.954  0.2807E+01  0.1808E+02
  -2.944  0.3404E+01  0.1812E+02
  -2.934  0.4068E+01  0.1815E+02
  -2.924  0.5631E+01  0.1820E+02
  -2.914  0.7828E+01  0.1827E+02
  -2.904  0.2381E+02  0.1844E+02
  -2.894  0.2744E+02  0.1871E+02
  -2.884  0.1974E+02  0.1897E+02
  -2.874  0.1736E+02  0.1916E+02
  -2.864  0.1449E+02  0.1932E+02
  -2.854  0.1211E+02  0.1945E+02
  -2.844  0.1158E+02  0.1956E+02
  -2.834  0.1141E+02  0.1968E+02
  -2.824  0.1102E+02  0.1979E+02
  -2.814  0.1040E+02  0.1990E+02
  -2.804  0.7175E+01  0.1999E+02
  -2.794  0.5923E+01  0.2005E+02
  -2.784  0.4810E+01  0.2011E+02
  -2.774  0.3845E+01  0.2015E+02
  -2.764  0.3160E+01  0.2019E+02
  -2.754  0.3746E+01  0.2022E+02
  -2.744  0.6430E+01  0.2027E+02
  -2.734  0.7408E+01  0.2034E+02
  -2.724  0.7973E+01  0.2042E+02
  -2.714  0.1563E+02  0.2052E+02
  -2.704  0.2136E+02  0.2071E+02
  -2.694  0.1176E+02  0.2091E+02
  -2.684  0.6909E+01  0.2100E+02
  -2.674  0.5760E+01  0.2106E+02
  -2.664  0.5529E+01  0.2111E+02
  -2.654  0.5311E+01  0.2117E+02
  -2.644  0.5105E+01  0.2122E+02
  -2.634  0.4913E+01  0.2127E+02
  -2.624  0.4733E+01  0.2132E+02
  -2.614  0.4566E+01  0.2136E+02
  -2.604  0.4411E+01  0.2141E+02
  -2.594  0.4291E+01  0.2145E+02
  -2.584  0.4380E+01  0.2150E+02
  -2.574  0.4445E+01  0.2154E+02
  -2.564  0.4482E+01  0.2158E+02
  -2.554  0.4490E+01  0.2163E+02
  -2.544  0.4470E+01  0.2167E+02
  -2.534  0.4421E+01  0.2172E+02
  -2.524  0.4433E+01  0.2176E+02
  -2.514  0.6030E+01  0.2182E+02
  -2.504  0.5522E+01  0.2187E+02
  -2.494  0.4845E+01  0.2193E+02
  -2.484  0.4172E+01  0.2197E+02
  -2.474  0.3872E+01  0.2201E+02
  -2.464  0.1839E+01  0.2206E+02
  -2.454  0.1159E+01  0.2207E+02
  -2.444  0.1299E+01  0.2208E+02
  -2.434  0.1454E+01  0.2209E+02
  -2.424  0.1623E+01  0.2211E+02
  -2.414  0.4958E+01  0.2214E+02
  -2.404  0.6813E+01  0.2220E+02
  -2.394  0.7566E+01  0.2227E+02
  -2.384  0.8376E+01  0.2235E+02
  -2.374  0.8636E+01  0.2244E+02
  -2.364  0.8704E+01  0.2252E+02
  -2.354  0.8581E+01  0.2261E+02
  -2.344  0.8213E+01  0.2269E+02
  -2.334  0.7715E+01  0.2277E+02
  -2.324  0.7459E+01  0.2285E+02
  -2.314  0.7354E+01  0.2292E+02
  -2.304  0.7252E+01  0.2300E+02
  -2.294  0.7151E+01  0.2307E+02
  -2.284  0.7051E+01  0.2314E+02
  -2.274  0.6930E+01  0.2321E+02
  -2.264  0.6771E+01  0.2328E+02
  -2.254  0.6536E+01  0.2334E+02
  -2.244  0.6227E+01  0.2341E+02
  -2.234  0.5935E+01  0.2347E+02
  -2.224  0.5641E+01  0.2353E+02
  -2.214  0.5359E+01  0.2358E+02
  -2.204  0.5138E+01  0.2363E+02
  -2.194  0.4980E+01  0.2368E+02
  -2.184  0.3601E+01  0.2373E+02
  -2.174  0.3411E+01  0.2376E+02
  -2.164  0.3228E+01  0.2380E+02
  -2.154  0.3050E+01  0.2383E+02
  -2.144  0.2877E+01  0.2386E+02
  -2.134  0.2711E+01  0.2389E+02
  -2.124  0.2360E+01  0.2391E+02
  -2.114  0.2177E+01  0.2393E+02
  -2.104  0.1801E+01  0.2395E+02
  -2.094  0.1437E+01  0.2397E+02
  -2.084  0.1084E+01  0.2398E+02
  -2.074  0.7418E+00  0.2399E+02
  -2.064  0.4115E+00  0.2400E+02
  -2.054  0.9244E-01  0.2400E+02
  -2.044  0.0000E+00  0.2400E+02
  -2.034  0.0000E+00  0.2400E+02
  -2.024  0.0000E+00  0.2400E+02
  -2.014  0.0000E+00  0.2400E+02
  -2.004  0.0000E+00  0.2400E+02
  -1.994  0.0000E+00  0.2400E+02
  -1.984  0.0000E+00  0.2400E+02
  -1.974  0.0000E+00  0.2400E+02
  -1.964  0.0000E+00  0.2400E+02
  -1.954  0.0000E+00  0.2400E+02
  -1.944  0.0000E+00  0.2400E+02
  -1.934  0.0000E+00  0.2400E+02
  -1.924  0.0000E+00  0.2400E+02
  -1.914  0.0000E+00  0.2400E+02
  -1.904  0.0000E+00  0.2400E+02
  -1.894  0.0000E+00  0.2400E+02
  -1.884  0.0000E+00  0.2400E+02
  -1.874  0.0000E+00  0.2400E+02
  -1.864  0.0000E+00  0.2400E+02
  -1.854  0.0000E+00  0.2400E+02
  -1.844  0.0000E+00  0.2400E+02
  -1.834  0.0000E+00  0.2400E+02
  -1.824  0.0000E+00  0.2400E+02
  -1.814  0.0000E+00  0.2400E+02
  -1.804  0.0000E+00  0.2400E+02
  -1.794  0.0000E+00  0.2400E+02
  -1.784  0.0000E+00  0.2400E+02
  -1.774  0.0000E+00  0.2400E+02
  -1.764  0.0000E+00  0.2400E+02
  -1.754  0.0000E+00  0.2400E+02
  -1.744  0.0000E+00  0.2400E+02
  -1.734  0.0000E+00  0.2400E+02
  -1.724  0.0000E+00  0.2400E+02
  -1.714  0.0000E+00  0.2400E+02
  -1.704  0.0000E+00  0.2400E+02
  -1.694  0.0000E+00  0.2400E+02
  -1.684  0.0000E+00  0.2400E+02
  -1.674  0.0000E+00  0.2400E+02
  -1.664  0.0000E+00  0.2400E+02
  -1.654  0.0000E+00  0.2400E+02
  -1.644  0.0000E+00  0.2400E+02
  -1.634  0.0000E+00  0.2400E+02
  -1.624  0.0000E+00  0.2400E+02
  -1.614  0.0000E+00  0.2400E+02
  -1.604  0.0000E+00  0.2400E+02
  -1.594  0.0000E+00  0.2400E+02
  -1.584  0.0000E+00  0.2400E+02
  -1.574  0.0000E+00  0.2400E+02
  -1.564  0.0000E+00  0.2400E+02
  -1.554  0.0000E+00  0.2400E+02
  -1.544  0.0000E+00  0.2400E+02
  -1.534  0.0000E+00  0.2400E+02
  -1.524  0.0000E+00  0.2400E+02
  -1.514  0.0000E+00  0.2400E+02
  -1.504  0.0000E+00  0.2400E+02
  -1.494  0.0000E+00  0.2400E+02
  -1.484  0.0000E+00  0.2400E+02
  -1.474  0.0000E+00  0.2400E+02
  -1.464  0.0000E+00  0.2400E+02
  -1.454  0.0000E+00  0.2400E+02
  -1.444  0.0000E+00  0.2400E+02
  -1.434  0.0000E+00  0.2400E+02
  -1.424  0.0000E+00  0.2400E+02
  -1.414  0.0000E+00  0.2400E+02
  -1.404  0.0000E+00  0.2400E+02
  -1.394  0.0000E+00  0.2400E+02
  -1.384  0.0000E+00  0.2400E+02
  -1.374  0.0000E+00  0.2400E+02
  -1.364  0.0000E+00  0.2400E+02
  -1.354  0.0000E+00  0.2400E+02
  -1.344  0.0000E+00  0.2400E+02
  -1.334  0.0000E+00  0.2400E+02
  -1.324  0.0000E+00  0.2400E+02
  -1.314  0.0000E+00  0.2400E+02
  -1.304  0.0000E+00  0.2400E+02
  -1.294  0.0000E+00  0.2400E+02
  -1.284  0.0000E+00  0.2400E+02
  -1.274  0.0000E+00  0.2400E+02
  -1.264  0.0000E+00  0.2400E+02
  -1.254  0.0000E+00  0.2400E+02
  -1.244  0.0000E+00  0.2400E+02
  -1.234  0.0000E+00  0.2400E+02
  -1.224  0.0000E+00  0.2400E+02
  -1.214  0.0000E+00  0.2400E+02
  -1.204  0.0000E+00  0.2400E+02
  -1.194  0.0000E+00  0.2400E+02
  -1.184  0.0000E+00  0.2400E+02
  -1.174  0.0000E+00  0.2400E+02
  -1.164  0.0000E+00  0.2400E+02
  -1.154  0.0000E+00  0.2400E+02
  -1.144  0.0000E+00  0.2400E+02
  -1.134  0.0000E+00  0.2400E+02
  -1.124  0.0000E+00  0.2400E+02
  -1.114  0.0000E+00  0.2400E+02
  -1.104  0.0000E+00  0.2400E+02
  -1.094  0.0000E+00  0.2400E+02
  -1.084  0.0000E+00  0.2400E+02
  -1.074  0.0000E+00  0.2400E+02
  -1.064  0.0000E+00  0.2400E+02
  -1.054  0.0000E+00  0.2400E+02
  -1.044  0.0000E+00  0.2400E+02
  -1.034  0.0000E+00  0.2400E+02
  -1.024  0.0000E+00  0.2400E+02
  -1.014  0.0000E+00  0.2400E+02
  -1.004  0.0000E+00  0.2400E+02
  -0.994  0.0000E+00  0.2400E+02
  -0.984  0.0000E+00  0.2400E+02
  -0.974  0.0000E+00  0.2400E+02
  -0.964  0.0000E+00  0.2400E+02
  -0.954  0.0000E+00  0.2400E+02
  -0.944  0.0000E+00  0.2400E+02
  -0.934  0.0000E+00  0.2400E+02
  -0.924  0.0000E+00  0.2400E+02
  -0.914  0.0000E+00  0.2400E+02
  -0.904  0.0000E+00  0.2400E+02
  -0.894  0.0000E+00  0.2400E+02
  -0.884  0.0000E+00  0.2400E+02
  -0.874  0.0000E+00  0.2400E+02
  -0.864  0.0000E+00  0.2400E+02
  -0.854  0.0000E+00  0.2400E+02
  -0.844  0.0000E+00  0.2400E+02
  -0.834  0.0000E+00  0.2400E+02
  -0.824  0.0000E+00  0.2400E+02
  -0.814  0.0000E+00  0.2400E+02
  -0.804  0.0000E+00  0.2400E+02
  -0.794  0.0000E+00  0.2400E+02
  -0.784  0.0000E+00  0.2400E+02
  -0.774  0.0000E+00  0.2400E+02
  -0.764  0.0000E+00  0.2400E+02
  -0.754  0.0000E+00  0.2400E+02
  -0.744  0.0000E+00  0.2400E+02
  -0.734  0.0000E+00  0.2400E+02
  -0.724  0.1555E+01  0.2400E+02
  -0.714  0.4529E+01  0.2403E+02
  -0.704  0.6668E+01  0.2409E+02
  -0.694  0.1070E+02  0.2418E+02
  -0.684  0.1091E+02  0.2429E+02
  -0.674  0.1023E+02  0.2439E+02
  -0.664  0.9741E+01  0.2449E+02
  -0.654  0.1062E+02  0.2459E+02
  -0.644  0.1245E+02  0.2471E+02
  -0.634  0.1457E+02  0.2484E+02
  -0.624  0.1700E+02  0.2500E+02
  -0.614  0.1796E+02  0.2518E+02
  -0.604  0.1631E+02  0.2535E+02
  -0.594  0.1316E+02  0.2550E+02
  -0.584  0.1037E+02  0.2562E+02
  -0.574  0.7951E+01  0.2571E+02
  -0.564  0.6593E+01  0.2578E+02
  -0.554  0.3885E+01  0.2583E+02
  -0.544  0.4754E+01  0.2588E+02
  -0.534  0.4724E+01  0.2593E+02
  -0.524  0.4984E+01  0.2597E+02
  -0.514  0.5307E+01  0.2603E+02
  -0.504  0.5477E+01  0.2608E+02
  -0.494  0.5688E+01  0.2614E+02
  -0.484  0.5939E+01  0.2619E+02
  -0.474  0.6231E+01  0.2625E+02
  -0.464  0.6563E+01  0.2632E+02
  -0.454  0.6451E+01  0.2638E+02
  -0.444  0.7016E+01  0.2645E+02
  -0.434  0.6968E+01  0.2652E+02
  -0.424  0.6277E+01  0.2659E+02
  -0.414  0.5668E+01  0.2665E+02
  -0.404  0.5694E+01  0.2670E+02
  -0.394  0.7650E+01  0.2677E+02
  -0.384  0.8738E+01  0.2685E+02
  -0.374  0.7986E+01  0.2693E+02
  -0.364  0.7868E+01  0.2701E+02
  -0.354  0.7744E+01  0.2709E+02
  -0.344  0.7614E+01  0.2717E+02
  -0.334  0.7478E+01  0.2724E+02
  -0.324  0.7337E+01  0.2732E+02
  -0.314  0.7190E+01  0.2739E+02
  -0.304  0.1002E+02  0.2747E+02
  -0.294  0.1210E+02  0.2758E+02
  -0.284  0.1056E+02  0.2772E+02
  -0.274  0.3817E+01  0.2779E+02
  -0.264  0.3064E+01  0.2782E+02
  -0.254  0.2878E+01  0.2785E+02
  -0.244  0.2896E+01  0.2788E+02
  -0.234  0.2964E+01  0.2791E+02
  -0.224  0.3062E+01  0.2794E+02
  -0.214  0.3192E+01  0.2797E+02
  -0.204  0.3354E+01  0.2800E+02
  -0.194  0.3547E+01  0.2804E+02
  -0.184  0.3771E+01  0.2807E+02
  -0.174  0.4296E+01  0.2811E+02
  -0.164  0.5265E+01  0.2816E+02
  -0.154  0.6577E+01  0.2822E+02
  -0.144  0.8034E+01  0.2829E+02
  -0.134  0.9868E+01  0.2838E+02
  -0.124  0.1158E+02  0.2849E+02
  -0.114  0.1255E+02  0.2861E+02
  -0.104  0.1320E+02  0.2874E+02
  -0.094  0.1319E+02  0.2887E+02
  -0.084  0.1153E+02  0.2899E+02
  -0.074  0.1044E+02  0.2910E+02
  -0.064  0.9256E+01  0.2920E+02
  -0.054  0.8583E+01  0.2929E+02
  -0.044  0.8170E+01  0.2937E+02
  -0.034  0.7851E+01  0.2945E+02
  -0.024  0.8480E+01  0.2953E+02
  -0.014  0.9202E+01  0.2962E+02
  -0.004  0.1095E+02  0.2972E+02
   0.006  0.7567E+01  0.2981E+02
   0.016  0.5435E+01  0.2988E+02
   0.026  0.3636E+01  0.2992E+02
   0.036  0.2173E+01  0.2995E+02
   0.046  0.1567E+01  0.2997E+02
   0.056  0.1201E+01  0.2998E+02
   0.066  0.8440E+00  0.2999E+02
   0.076  0.5102E+00  0.3000E+02
   0.086  0.1266E+00  0.3000E+02
   0.096  0.1316E+00  0.3000E+02
   0.106  0.2077E+00  0.3000E+02
   0.116  0.2989E+00  0.3001E+02
   0.126  0.4051E+00  0.3001E+02
   0.136  0.5265E+00  0.3001E+02
   0.146  0.6629E+00  0.3002E+02
   0.156  0.8967E+00  0.3003E+02
   0.166  0.1541E+01  0.3004E+02
   0.176  0.2625E+01  0.3006E+02
   0.186  0.4156E+01  0.3009E+02
   0.196  0.6227E+01  0.3014E+02
   0.206  0.8568E+01  0.3022E+02
   0.216  0.1187E+02  0.3032E+02
   0.226  0.1496E+02  0.3045E+02
   0.236  0.1880E+02  0.3062E+02
   0.246  0.1860E+02  0.3081E+02
   0.256  0.1745E+02  0.3099E+02
   0.266  0.1528E+02  0.3116E+02
   0.276  0.1297E+02  0.3130E+02
   0.286  0.1075E+02  0.3142E+02
   0.296  0.9248E+01  0.3152E+02
   0.306  0.7629E+01  0.3160E+02
   0.316  0.6352E+01  0.3167E+02
   0.326  0.5659E+01  0.3173E+02
   0.336  0.4112E+01  0.3178E+02
   0.346  0.3684E+01  0.3182E+02
   0.356  0.3295E+01  0.3185E+02
   0.366  0.2903E+01  0.3188E+02
   0.376  0.2507E+01  0.3191E+02
   0.386  0.2106E+01  0.3193E+02
   0.396  0.1702E+01  0.3195E+02
   0.406  0.1293E+01  0.3197E+02
   0.416  0.9819E+00  0.3198E+02
   0.426  0.7081E+00  0.3199E+02
   0.436  0.4715E+00  0.3199E+02
   0.446  0.2720E+00  0.3200E+02
   0.456  0.1097E+00  0.3200E+02
   0.466  0.1956E+00  0.3200E+02
   0.476  0.5818E+01  0.3202E+02
   0.486  0.1529E+02  0.3214E+02
   0.496  0.2778E+02  0.3234E+02
   0.506  0.3586E+02  0.3267E+02
   0.516  0.3357E+02  0.3303E+02
   0.526  0.2597E+02  0.3333E+02
   0.536  0.1593E+02  0.3354E+02
   0.546  0.9269E+01  0.3366E+02
   0.556  0.6031E+01  0.3373E+02
   0.566  0.2239E+01  0.3377E+02
   0.576  0.2095E+01  0.3379E+02
   0.586  0.1956E+01  0.3381E+02
   0.596  0.1821E+01  0.3383E+02
   0.606  0.1693E+01  0.3385E+02
   0.616  0.1569E+01  0.3387E+02
   0.626  0.1450E+01  0.3388E+02
   0.636  0.1337E+01  0.3390E+02
   0.646  0.1256E+01  0.3391E+02
   0.656  0.1375E+01  0.3392E+02
   0.666  0.1573E+01  0.3394E+02
   0.676  0.1886E+01  0.3395E+02
   0.686  0.2248E+01  0.3397E+02
   0.696  0.2610E+01  0.3400E+02
   0.706  0.2972E+01  0.3403E+02
   0.716  0.3336E+01  0.3406E+02
   0.726  0.3699E+01  0.3409E+02
   0.736  0.4063E+01  0.3413E+02
   0.746  0.4361E+01  0.3417E+02
   0.756  0.5017E+01  0.3422E+02
   0.766  0.5982E+01  0.3428E+02
   0.776  0.6339E+01  0.3434E+02
   0.786  0.6607E+01  0.3440E+02
   0.796  0.6788E+01  0.3447E+02
   0.806  0.7038E+01  0.3454E+02
   0.816  0.7229E+01  0.3461E+02
   0.826  0.7418E+01  0.3468E+02
   0.836  0.8649E+01  0.3476E+02
   0.846  0.9691E+01  0.3486E+02
   0.856  0.1039E+02  0.3496E+02
   0.866  0.1073E+02  0.3506E+02
   0.876  0.1091E+02  0.3517E+02
   0.886  0.1052E+02  0.3528E+02
   0.896  0.1001E+02  0.3538E+02
   0.906  0.9406E+01  0.3548E+02
   0.916  0.8322E+01  0.3557E+02
   0.926  0.8683E+01  0.3565E+02
   0.936  0.9221E+01  0.3574E+02
   0.946  0.9853E+01  0.3584E+02
   0.956  0.1124E+02  0.3594E+02
   0.966  0.1238E+02  0.3606E+02
   0.976  0.1263E+02  0.3619E+02
   0.986  0.1210E+02  0.3631E+02
   0.996  0.1324E+02  0.3644E+02
   1.006  0.1108E+02  0.3655E+02
   1.016  0.1047E+02  0.3666E+02
   1.026  0.9720E+01  0.3676E+02
   1.036  0.8907E+01  0.3686E+02
   1.046  0.1248E+02  0.3696E+02
   1.056  0.9116E+01  0.3707E+02
   1.066  0.7777E+01  0.3715E+02
   1.076  0.6928E+01  0.3723E+02
   1.086  0.6486E+01  0.3729E+02
   1.096  0.6051E+01  0.3736E+02
   1.106  0.5596E+01  0.3742E+02
   1.116  0.5273E+01  0.3747E+02
   1.126  0.5121E+01  0.3752E+02
   1.136  0.5105E+01  0.3757E+02
   1.146  0.5094E+01  0.3762E+02
   1.156  0.5082E+01  0.3767E+02
   1.166  0.5073E+01  0.3773E+02
   1.176  0.5073E+01  0.3778E+02
   1.186  0.5092E+01  0.3783E+02
   1.196  0.5148E+01  0.3788E+02
   1.206  0.5220E+01  0.3793E+02
   1.216  0.5306E+01  0.3798E+02
   1.226  0.5800E+01  0.3804E+02
   1.236  0.6435E+01  0.3810E+02
   1.246  0.6194E+01  0.3816E+02
   1.256  0.6845E+01  0.3823E+02
   1.266  0.7558E+01  0.3830E+02
   1.276  0.8334E+01  0.3838E+02
   1.286  0.1400E+02  0.3848E+02
   1.296  0.2431E+02  0.3868E+02
   1.306  0.1812E+02  0.3890E+02
   1.316  0.1609E+02  0.3907E+02
   1.326  0.1323E+02  0.3922E+02
   1.336  0.1131E+02  0.3934E+02
   1.346  0.1071E+02  0.3945E+02
   1.356  0.1046E+02  0.3956E+02
   1.366  0.1002E+02  0.3966E+02
   1.376  0.9596E+01  0.3976E+02
   1.386  0.8414E+01  0.3985E+02
   1.396  0.6372E+01  0.3992E+02
   1.406  0.4413E+01  0.3998E+02
   1.416  0.2215E+01  0.4001E+02
   1.426  0.1408E+01  0.4003E+02
   1.436  0.1667E+01  0.4004E+02
   1.446  0.2639E+01  0.4006E+02
   1.456  0.3588E+01  0.4010E+02
   1.466  0.4514E+01  0.4014E+02
   1.476  0.5448E+01  0.4019E+02
   1.486  0.6469E+01  0.4025E+02
   1.496  0.7544E+01  0.4032E+02
   1.506  0.9002E+01  0.4040E+02
   1.516  0.1138E+02  0.4050E+02
   1.526  0.1458E+02  0.4063E+02
   1.536  0.1529E+02  0.4078E+02
   1.546  0.1550E+02  0.4093E+02
   1.556  0.1601E+02  0.4109E+02
   1.566  0.1882E+02  0.4126E+02
   1.576  0.2043E+02  0.4146E+02
   1.586  0.1819E+02  0.4166E+02
   1.596  0.1399E+02  0.4182E+02
   1.606  0.8703E+01  0.4193E+02
   1.616  0.2853E+01  0.4200E+02
   1.626  0.0000E+00  0.4200E+02
   1.636  0.0000E+00  0.4200E+02
   1.646  0.0000E+00  0.4200E+02
   1.656  0.0000E+00  0.4200E+02
   1.666  0.0000E+00  0.4200E+02
   1.676  0.1802E-02  0.4200E+02
   1.686  0.6565E-01  0.4200E+02
   1.696  0.2209E+00  0.4200E+02
   1.706  0.4675E+00  0.4200E+02
   1.716  0.8074E+00  0.4201E+02
   1.726  0.1323E+01  0.4202E+02
   1.736  0.2661E+01  0.4204E+02
   1.746  0.4958E+01  0.4208E+02
   1.756  0.7510E+01  0.4214E+02
   1.766  0.1005E+02  0.4223E+02
   1.776  0.1256E+02  0.4234E+02
   1.786  0.1516E+02  0.4248E+02
   1.796  0.1762E+02  0.4264E+02
   1.806  0.1902E+02  0.4283E+02
   1.816  0.1822E+02  0.4302E+02
   1.826  0.1482E+02  0.4318E+02
   1.836  0.1122E+02  0.4331E+02
   1.846  0.9314E+01  0.4342E+02
   1.856  0.6336E+01  0.4349E+02
   1.866  0.5749E+01  0.4355E+02
   1.876  0.5191E+01  0.4361E+02
   1.886  0.4663E+01  0.4366E+02
   1.896  0.4163E+01  0.4370E+02
   1.906  0.3693E+01  0.4374E+02
   1.916  0.3252E+01  0.4377E+02
   1.926  0.3145E+01  0.4381E+02
   1.936  0.3185E+01  0.4384E+02
   1.946  0.3351E+01  0.4387E+02
   1.956  0.3783E+01  0.4391E+02
   1.966  0.4203E+01  0.4395E+02
   1.976  0.4321E+01  0.4399E+02
   1.986  0.4149E+01  0.4403E+02
   1.996  0.4205E+01  0.4407E+02
   2.006  0.4366E+01  0.4411E+02
   2.016  0.4544E+01  0.4416E+02
   2.026  0.4735E+01  0.4421E+02
   2.036  0.4892E+01  0.4425E+02
   2.046  0.4993E+01  0.4430E+02
   2.056  0.5040E+01  0.4435E+02
   2.066  0.5031E+01  0.4440E+02
   2.076  0.4967E+01  0.4445E+02
   2.086  0.5012E+01  0.4450E+02
   2.096  0.5166E+01  0.4455E+02
   2.106  0.4940E+01  0.4460E+02
   2.116  0.5236E+01  0.4465E+02
   2.126  0.5548E+01  0.4471E+02
   2.136  0.5873E+01  0.4476E+02
   2.146  0.8109E+01  0.4484E+02
   2.156  0.9198E+01  0.4492E+02
   2.166  0.9664E+01  0.4502E+02
   2.176  0.2095E+02  0.4514E+02
   2.186  0.1241E+02  0.4535E+02
   2.196  0.1189E+02  0.4547E+02
   2.206  0.1131E+02  0.4559E+02
   2.216  0.1067E+02  0.4570E+02
   2.226  0.9971E+01  0.4580E+02
   2.236  0.6235E+01  0.4588E+02
   2.246  0.5130E+01  0.4593E+02
   2.256  0.4603E+01  0.4598E+02
   2.266  0.4269E+01  0.4603E+02
   2.276  0.4128E+01  0.4607E+02
   2.286  0.4267E+01  0.4611E+02
   2.296  0.5111E+01  0.4616E+02
   2.306  0.6011E+01  0.4621E+02
   2.316  0.6510E+01  0.4627E+02
   2.326  0.6523E+01  0.4634E+02
   2.336  0.6284E+01  0.4640E+02
   2.346  0.6353E+01  0.4647E+02
   2.356  0.6654E+01  0.4653E+02
   2.366  0.7159E+01  0.4660E+02
   2.376  0.7870E+01  0.4668E+02
   2.386  0.8663E+01  0.4676E+02
   2.396  0.1085E+02  0.4685E+02
   2.406  0.1291E+02  0.4697E+02
   2.416  0.1526E+02  0.4712E+02
   2.426  0.1370E+02  0.4726E+02
   2.436  0.1291E+02  0.4739E+02
   2.446  0.1277E+02  0.4752E+02
   2.456  0.1542E+02  0.4766E+02
   2.466  0.1494E+02  0.4782E+02
   2.476  0.9940E+01  0.4794E+02
   2.486  0.1402E+01  0.4800E+02
   2.496  0.0000E+00  0.4800E+02
   2.506  0.0000E+00  0.4800E+02
   2.516  0.0000E+00  0.4800E+02
   2.526  0.0000E+00  0.4800E+02
   2.536  0.0000E+00  0.4800E+02
   2.546  0.0000E+00  0.4800E+02
   2.556  0.0000E+00  0.4800E+02
   2.566  0.0000E+00  0.4800E+02
   2.576  0.0000E+00  0.4800E+02
   2.586  0.0000E+00  0.4800E+02
   2.596  0.0000E+00  0.4800E+02
   2.606  0.0000E+00  0.4800E+02
   2.616  0.0000E+00  0.4800E+02
   2.626  0.0000E+00  0.4800E+02
   2.636  0.0000E+00  0.4800E+02
   2.646  0.0000E+00  0.4800E+02
   2.656  0.0000E+00  0.4800E+02
   2.666  0.0000E+00  0.4800E+02
   2.676  0.0000E+00  0.4800E+02
   2.686  0.0000E+00  0.4800E+02
   2.696  0.0000E+00  0.4800E+02
   2.706  0.0000E+00  0.4800E+02
   2.716  0.0000E+00  0.4800E+02
   2.726  0.0000E+00  0.4800E+02
   2.736  0.0000E+00  0.4800E+02
   2.746  0.0000E+00  0.4800E+02
   2.756  0.0000E+00  0.4800E+02
   2.766  0.0000E+00  0.4800E+02
   2.776  0.0000E+00  0.4800E+02
   2.786  0.0000E+00  0.4800E+02
   2.796  0.0000E+00  0.4800E+02
   2.806  0.0000E+00  0.4800E+02
   2.816  0.0000E+00  0.4800E+02
   2.826  0.0000E+00  0.4800E+02
   2.836  0.0000E+00  0.4800E+02
   2.846  0.0000E+00  0.4800E+02
   2.856  0.0000E+00  0.4800E+02
   2.866  0.0000E+00  0.4800E+02
   2.876  0.0000E+00  0.4800E+02
   2.886  0.0000E+00  0.4800E+02
   2.896  0.0000E+00  0.4800E+02
   2.906  0.0000E+00  0.4800E+02
   2.916  0.0000E+00  0.4800E+02
   2.926  0.0000E+00  0.4800E+02
   2.936  0.0000E+00  0.4800E+02
   2.946  0.0000E+00  0.4800E+02
   2.956  0.0000E+00  0.4800E+02
   2.966  0.0000E+00  0.4800E+02
   2.976  0.0000E+00  0.4800E+02
   2.986  0.0000E+00  0.4800E+02
   2.996  0.0000E+00  0.4800E+02
   3.006  0.0000E+00  0.4800E+02
   3.016  0.0000E+00  0.4800E+02
   3.026  0.0000E+00  0.4800E+02
   3.036  0.0000E+00  0.4800E+02
   3.046  0.0000E+00  0.4800E+02
   3.056  0.0000E+00  0.4800E+02
   3.066  0.0000E+00  0.4800E+02
   3.076  0.0000E+00  0.4800E+02
   3.086  0.0000E+00  0.4800E+02
   3.096  0.0000E+00  0.4800E+02
   3.106  0.0000E+00  0.4800E+02
   3.116  0.0000E+00  0.4800E+02
   3.126  0.0000E+00  0.4800E+02
   3.136  0.0000E+00  0.4800E+02
   3.146  0.0000E+00  0.4800E+02
   3.156  0.0000E+00  0.4800E+02
   3.166  0.0000E+00  0.4800E+02
   3.176  0.0000E+00  0.4800E+02
   3.186  0.0000E+00  0.4800E+02
   3.196  0.0000E+00  0.4800E+02
   3.206  0.0000E+00  0.4800E+02
   3.216  0.0000E+00  0.4800E+02
   3.226  0.0000E+00  0.4800E+02
   3.236  0.0000E+00  0.4800E+02
   3.246  0.0000E+00  0.4800E+02
   3.256  0.0000E+00  0.4800E+02
   3.266  0.0000E+00  0.4800E+02
   3.276  0.0000E+00  0.4800E+02
   3.286  0.0000E+00  0.4800E+02
   3.296  0.0000E+00  0.4800E+02
   3.306  0.0000E+00  0.4800E+02
   3.316  0.0000E+00  0.4800E+02
   3.326  0.0000E+00  0.4800E+02
   3.336  0.0000E+00  0.4800E+02
   3.346  0.0000E+00  0.4800E+02
   3.356  0.0000E+00  0.4800E+02
   3.366  0.0000E+00  0.4800E+02
   3.376  0.0000E+00  0.4800E+02
   3.386  0.0000E+00  0.4800E+02
   3.396  0.0000E+00  0.4800E+02
   3.406  0.0000E+00  0.4800E+02
   3.416  0.0000E+00  0.4800E+02
   3.426  0.0000E+00  0.4800E+02
   3.436  0.0000E+00  0.4800E+02
   3.446  0.0000E+00  0.4800E+02
   3.456  0.0000E+00  0.4800E+02
   3.466  0.0000E+00  0.4800E+02
   3.476  0.0000E+00  0.4800E+02
   3.486  0.0000E+00  0.4800E+02
   3.496  0.0000E+00  0.4800E+02
   3.506  0.0000E+00  0.4800E+02
   3.516  0.0000E+00  0.4800E+02
   3.526  0.0000E+00  0.4800E+02
   3.536  0.0000E+00  0.4800E+02
   3.546  0.0000E+00  0.4800E+02
   3.556  0.0000E+00  0.4800E+02
   3.566  0.0000E+00  0.4800E+02
   3.576  0.0000E+00  0.4800E+02
   3.586  0.0000E+00  0.4800E+02
   3.596  0.0000E+00  0.4800E+02
   3.606  0.0000E+00  0.4800E+02
   3.616  0.0000E+00  0.4800E+02
   3.626  0.0000E+00  0.4800E+02
   3.636  0.0000E+00  0.4800E+02
   3.646  0.0000E+00  0.4800E+02
   3.656  0.0000E+00  0.4800E+02
   3.666  0.0000E+00  0.4800E+02
   3.676  0.0000E+00  0.4800E+02
   3.686  0.0000E+00  0.4800E+02
   3.696  0.0000E+00  0.4800E+02
   3.706  0.0000E+00  0.4800E+02
   3.716  0.0000E+00  0.4800E+02
   3.726  0.0000E+00  0.4800E+02
   3.736  0.0000E+00  0.4800E+02
   3.746  0.0000E+00  0.4800E+02
   3.756  0.0000E+00  0.4800E+02
   3.766  0.0000E+00  0.4800E+02
   3.776  0.0000E+00  0.4800E+02
   3.786  0.0000E+00  0.4800E+02
   3.796  0.0000E+00  0.4800E+02
   3.806  0.0000E+00  0.4800E+02
   3.816  0.0000E+00  0.4800E+02
   3.826  0.0000E+00  0.4800E+02
   3.836  0.0000E+00  0.4800E+02
   3.846  0.0000E+00  0.4800E+02
   3.856  0.0000E+00  0.4800E+02
   3.866  0.0000E+00  0.4800E+02
   3.876  0.0000E+00  0.4800E+02
   3.886  0.0000E+00  0.4800E+02
   3.896  0.0000E+00  0.4800E+02
   3.906  0.0000E+00  0.4800E+02
   3.916  0.0000E+00  0.4800E+02
   3.926  0.0000E+00  0.4800E+02
   3.936  0.0000E+00  0.4800E+02
   3.946  0.0000E+00  0.4800E+02
   3.956  0.0000E+00  0.4800E+02
   3.966  0.0000E+00  0.4800E+02
   3.976  0.0000E+00  0.4800E+02
   3.986  0.0000E+00  0.4800E+02
   3.996  0.0000E+00  0.4800E+02
   4.006  0.0000E+00  0.4800E+02
   4.016  0.0000E+00  0.4800E+02
   4.026  0.0000E+00  0.4800E+02
   4.036  0.0000E+00  0.4800E+02
   4.046  0.0000E+00  0.4800E+02
   4.056  0.0000E+00  0.4800E+02
   4.066  0.0000E+00  0.4800E+02
   4.076  0.0000E+00  0.4800E+02
   4.086  0.0000E+00  0.4800E+02
   4.096  0.0000E+00  0.4800E+02
   4.106  0.0000E+00  0.4800E+02
   4.116  0.0000E+00  0.4800E+02
   4.126  0.0000E+00  0.4800E+02
   4.136  0.0000E+00  0.4800E+02
   4.146  0.0000E+00  0.4800E+02
   4.156  0.0000E+00  0.4800E+02
   4.166  0.0000E+00  0.4800E+02
   4.176  0.0000E+00  0.4800E+02
   4.186  0.0000E+00  0.4800E+02
   4.196  0.0000E+00  0.4800E+02
   4.206  0.0000E+00  0.4800E+02
   4.216  0.0000E+00  0.4800E+02
   4.226  0.0000E+00  0.4800E+02
   4.236  0.0000E+00  0.4800E+02
   4.246  0.0000E+00  0.4800E+02
   4.256  0.0000E+00  0.4800E+02
   4.266  0.0000E+00  0.4800E+02
   4.276  0.0000E+00  0.4800E+02
   4.286  0.0000E+00  0.4800E+02
   4.296  0.0000E+00  0.4800E+02
   4.306  0.0000E+00  0.4800E+02
   4.316  0.0000E+00  0.4800E+02
   4.326  0.0000E+00  0.4800E+02
   4.336  0.0000E+00  0.4800E+02
   4.346  0.0000E+00  0.4800E+02
   4.356  0.0000E+00  0.4800E+02
   4.366  0.0000E+00  0.4800E+02
   4.376  0.0000E+00  0.4800E+02
   4.386  0.0000E+00  0.4800E+02
   4.396  0.0000E+00  0.4800E+02
   4.406  0.0000E+00  0.4800E+02
   4.416  0.0000E+00  0.4800E+02
   4.426  0.0000E+00  0.4800E+02
   4.436  0.0000E+00  0.4800E+02
   4.446  0.0000E+00  0.4800E+02
   4.456  0.0000E+00  0.4800E+02
   4.466  0.0000E+00  0.4800E+02
   4.476  0.0000E+00  0.4800E+02
   4.486  0.0000E+00  0.4800E+02
   4.496  0.0000E+00  0.4800E+02
   4.506  0.0000E+00  0.4800E+02
   4.516  0.0000E+00  0.4800E+02
   4.526  0.0000E+00  0.4800E+02
   4.536  0.0000E+00  0.4800E+02
   4.546  0.0000E+00  0.4800E+02
   4.556  0.0000E+00  0.4800E+02
   4.566  0.0000E+00  0.4800E+02
   4.576  0.0000E+00  0.4800E+02
   4.586  0.0000E+00  0.4800E+02
   4.596  0.0000E+00  0.4800E+02
   4.606  0.0000E+00  0.4800E+02
   4.616  0.0000E+00  0.4800E+02
   4.626  0.0000E+00  0.4800E+02
   4.636  0.0000E+00  0.4800E+02
   4.646  0.0000E+00  0.4800E+02
   4.656  0.0000E+00  0.4800E+02
   4.666  0.0000E+00  0.4800E+02
   4.676  0.0000E+00  0.4800E+02
   4.686  0.0000E+00  0.4800E+02
   4.696  0.0000E+00  0.4800E+02
   4.706  0.0000E+00  0.4800E+02
   4.716  0.0000E+00  0.4800E+02
   4.726  0.0000E+00  0.4800E+02
   4.736  0.0000E+00  0.4800E+02
   4.746  0.0000E+00  0.4800E+02
   4.756  0.0000E+00  0.4800E+02
   4.766  0.0000E+00  0.4800E+02
   4.776  0.0000E+00  0.4800E+02
   4.786  0.0000E+00  0.4800E+02
   4.796  0.0000E+00  0.4800E+02
   4.806  0.0000E+00  0.4800E+02
   4.816  0.0000E+00  0.4800E+02
   4.826  0.0000E+00  0.4800E+02
   4.836  0.0000E+00  0.4800E+02
   4.846  0.0000E+00  0.4800E+02
   4.856  0.0000E+00  0.4800E+02
   4.866  0.0000E+00  0.4800E+02
   4.876  0.0000E+00  0.4800E+02
   4.886  0.0000E+00  0.4800E+02
   4.896  0.0000E+00  0.4800E+02
   4.906  0.0000E+00  0.4800E+02
   4.916  0.0000E+00  0.4800E+02
   4.926  0.0000E+00  0.4800E+02
   4.936  0.0000E+00  0.4800E+02
   4.946  0.0000E+00  0.4800E+02
   4.956  0.0000E+00  0.4800E+02
   4.966  0.0000E+00  0.4800E+02
   4.976  0.0000E+00  0.4800E+02
   4.986  0.0000E+00  0.4800E+02
   4.996  0.0000E+00  0.4800E+02
   5.006  0.0000E+00  0.4800E+02
   5.016  0.0000E+00  0.4800E+02
   5.026  0.0000E+00  0.4800E+02
   5.036  0.0000E+00  0.4800E+02
   5.046  0.0000E+00  0.4800E+02
   5.056  0.0000E+00  0.4800E+02
   5.066  0.0000E+00  0.4800E+02
   5.076  0.0000E+00  0.4800E+02
   5.086  0.0000E+00  0.4800E+02
   5.096  0.0000E+00  0.4800E+02
   5.106  0.0000E+00  0.4800E+02
   5.116  0.0000E+00  0.4800E+02
   5.126  0.0000E+00  0.4800E+02
   5.136  0.0000E+00  0.4800E+02
   5.146  0.0000E+00  0.4800E+02
   5.156  0.0000E+00  0.4800E+02
   5.166  0.0000E+00  0.4800E+02
   5.176  0.0000E+00  0.4800E+02
   5.186  0.0000E+00  0.4800E+02
   5.196  0.0000E+00  0.4800E+02
   5.206  0.0000E+00  0.4800E+02
   5.216  0.0000E+00  0.4800E+02
   5.226  0.0000E+00  0.4800E+02
   5.236  0.0000E+00  0.4800E+02
   5.246  0.0000E+00  0.4800E+02
   5.256  0.0000E+00  0.4800E+02
   5.266  0.0000E+00  0.4800E+02
   5.276  0.0000E+00  0.4800E+02
   5.286  0.0000E+00  0.4800E+02
   5.296  0.0000E+00  0.4800E+02
   5.306  0.0000E+00  0.4800E+02
   5.316  0.0000E+00  0.4800E+02
   5.326  0.0000E+00  0.4800E+02
   5.336  0.0000E+00  0.4800E+02
   5.346  0.0000E+00  0.4800E+02
   5.356  0.0000E+00  0.4800E+02
   5.366  0.0000E+00  0.4800E+02
   5.376  0.0000E+00  0.4800E+02
   5.386  0.0000E+00  0.4800E+02
   5.396  0.0000E+00  0.4800E+02
   5.406  0.0000E+00  0.4800E+02
   5.416  0.0000E+00  0.4800E+02
   5.426  0.0000E+00  0.4800E+02
   5.436  0.0000E+00  0.4800E+02
   5.446  0.0000E+00  0.4800E+02
   5.456  0.0000E+00  0.4800E+02
   5.466  0.0000E+00  0.4800E+02
   5.476  0.0000E+00  0.4800E+02
   5.486  0.0000E+00  0.4800E+02
   5.496  0.0000E+00  0.4800E+02
   5.506  0.0000E+00  0.4800E+02
   5.516  0.0000E+00  0.4800E+02
   5.526  0.0000E+00  0.4800E+02
   5.536  0.0000E+00  0.4800E+02
   5.546  0.0000E+00  0.4800E+02
   5.556  0.0000E+00  0.4800E+02
   5.566  0.0000E+00  0.4800E+02
   5.576  0.0000E+00  0.4800E+02
   5.586  0.0000E+00  0.4800E+02
   5.596  0.0000E+00  0.4800E+02
   5.606  0.0000E+00  0.4800E+02
   5.616  0.0000E+00  0.4800E+02
   5.626  0.0000E+00  0.4800E+02
   5.636  0.0000E+00  0.4800E+02
   5.646  0.0000E+00  0.4800E+02
   5.656  0.0000E+00  0.4800E+02
   5.666  0.0000E+00  0.4800E+02
   5.676  0.0000E+00  0.4800E+02
   5.686  0.0000E+00  0.4800E+02
   5.696  0.0000E+00  0.4800E+02
   5.706  0.0000E+00  0.4800E+02
   5.716  0.0000E+00  0.4800E+02
   5.726  0.0000E+00  0.4800E+02
   5.736  0.0000E+00  0.4800E+02
   5.746  0.0000E+00  0.4800E+02
   5.756  0.0000E+00  0.4800E+02
   5.766  0.0000E+00  0.4800E+02
   5.776  0.0000E+00  0.4800E+02
   5.786  0.0000E+00  0.4800E+02
   5.796  0.0000E+00  0.4800E+02
   5.806  0.0000E+00  0.4800E+02
   5.816  0.0000E+00  0.4800E+02
   5.826  0.0000E+00  0.4800E+02
   5.836  0.0000E+00  0.4800E+02
   5.846  0.0000E+00  0.4800E+02
   5.856  0.0000E+00  0.4800E+02
   5.866  0.0000E+00  0.4800E+02
   5.876  0.0000E+00  0.4800E+02
   5.886  0.0000E+00  0.4800E+02
   5.896  0.0000E+00  0.4800E+02
   5.906  0.0000E+00  0.4800E+02
   5.916  0.0000E+00  0.4800E+02
   5.926  0.0000E+00  0.4800E+02
   5.936  0.0000E+00  0.4800E+02
   5.946  0.0000E+00  0.4800E+02
   5.956  0.0000E+00  0.4800E+02
   5.966  0.0000E+00  0.4800E+02
   5.976  0.0000E+00  0.4800E+02
   5.986  0.0000E+00  0.4800E+02
   5.996  0.0000E+00  0.4800E+02
   6.006  0.0000E+00  0.4800E+02
   6.016  0.0000E+00  0.4800E+02
   6.026  0.0000E+00  0.4800E+02
   6.036  0.0000E+00  0.4800E+02
   6.046  0.0000E+00  0.4800E+02
   6.056  0.0000E+00  0.4800E+02
   6.066  0.0000E+00  0.4800E+02
   6.076  0.0000E+00  0.4800E+02
   6.086  0.0000E+00  0.4800E+02
   6.096  0.0000E+00  0.4800E+02
   6.106  0.0000E+00  0.4800E+02
   6.116  0.0000E+00  0.4800E+02
   6.126  0.0000E+00  0.4800E+02
   6.136  0.0000E+00  0.4800E+02
   6.146  0.0000E+00  0.4800E+02
   6.156  0.0000E+00  0.4800E+02
   6.166  0.0000E+00  0.4800E+02
   6.176  0.0000E+00  0.4800E+02
   6.186  0.0000E+00  0.4800E+02
   6.196  0.0000E+00  0.4800E+02
   6.206  0.0000E+00  0.4800E+02
   6.216  0.0000E+00  0.4800E+02
   6.226  0.0000E+00  0.4800E+02
   6.236  0.0000E+00  0.4800E+02
   6.246  0.0000E+00  0.4800E+02
   6.256  0.0000E+00  0.4800E+02
   6.266  0.0000E+00  0.4800E+02
   6.276  0.0000E+00  0.4800E+02
   6.286  0.0000E+00  0.4800E+02
   6.296  0.0000E+00  0.4800E+02
   6.306  0.0000E+00  0.4800E+02
   6.316  0.0000E+00  0.4800E+02
   6.326  0.0000E+00  0.4800E+02
   6.336  0.0000E+00  0.4800E+02
   6.346  0.0000E+00  0.4800E+02
   6.356  0.0000E+00  0.4800E+02
   6.366  0.0000E+00  0.4800E+02
   6.376  0.0000E+00  0.4800E+02
   6.386  0.0000E+00  0.4800E+02
   6.396  0.0000E+00  0.4800E+02
   6.406  0.0000E+00  0.4800E+02
   6.416  0.0000E+00  0.4800E+02
   6.426  0.0000E+00  0.4800E+02
   6.436  0.0000E+00  0.4800E+02
   6.446  0.0000E+00  0.4800E+02
   6.456  0.0000E+00  0.4800E+02
   6.466  0.0000E+00  0.4800E+02
   6.476  0.0000E+00  0.4800E+02
   6.486  0.0000E+00  0.4800E+02
   6.496  0.0000E+00  0.4800E+02
   6.506  0.0000E+00  0.4800E+02
   6.516  0.0000E+00  0.4800E+02
   6.526  0.0000E+00  0.4800E+02
   6.536  0.0000E+00  0.4800E+02
   6.546  0.0000E+00  0.4800E+02
   6.556  0.0000E+00  0.4800E+02
   6.566  0.0000E+00  0.4800E+02
   6.576  0.0000E+00  0.4800E+02
   6.586  0.0000E+00  0.4800E+02
   6.596  0.0000E+00  0.4800E+02
   6.606  0.0000E+00  0.4800E+02
   6.616  0.0000E+00  0.4800E+02
   6.626  0.0000E+00  0.4800E+02
   6.636  0.0000E+00  0.4800E+02
   6.646  0.0000E+00  0.4800E+02
   6.656  0.0000E+00  0.4800E+02
   6.666  0.0000E+00  0.4800E+02
   6.676  0.0000E+00  0.4800E+02
   6.686  0.0000E+00  0.4800E+02
   6.696  0.0000E+00  0.4800E+02
   6.706  0.0000E+00  0.4800E+02
   6.716  0.0000E+00  0.4800E+02
   6.726  0.0000E+00  0.4800E+02
   6.736  0.0000E+00  0.4800E+02
   6.746  0.0000E+00  0.4800E+02
   6.756  0.0000E+00  0.4800E+02
   6.766  0.0000E+00  0.4800E+02
   6.776  0.0000E+00  0.4800E+02
   6.786  0.0000E+00  0.4800E+02
   6.796  0.0000E+00  0.4800E+02
   6.806  0.0000E+00  0.4800E+02
   6.816  0.0000E+00  0.4800E+02
   6.826  0.0000E+00  0.4800E+02
   6.836  0.0000E+00  0.4800E+02
   6.846  0.0000E+00  0.4800E+02
   6.856  0.0000E+00  0.4800E+02
   6.866  0.0000E+00  0.4800E+02
   6.876  0.0000E+00  0.4800E+02
   6.886  0.0000E+00  0.4800E+02
   6.896  0.0000E+00  0.4800E+02
   6.906  0.0000E+00  0.4800E+02
   6.916  0.0000E+00  0.4800E+02
   6.926  0.0000E+00  0.4800E+02
   6.936  0.0000E+00  0.4800E+02
   6.946  0.0000E+00  0.4800E+02
   6.956  0.0000E+00  0.4800E+02
   6.966  0.0000E+00  0.4800E+02
   6.976  0.0000E+00  0.4800E+02
   6.986  0.0000E+00  0.4800E+02
   6.996  0.0000E+00  0.4800E+02
   7.006  0.0000E+00  0.4800E+02
   7.016  0.0000E+00  0.4800E+02
   7.026  0.0000E+00  0.4800E+02
   7.036  0.0000E+00  0.4800E+02
   7.046  0.0000E+00  0.4800E+02
   7.056  0.0000E+00  0.4800E+02
   7.066  0.0000E+00  0.4800E+02
   7.076  0.0000E+00  0.4800E+02
   7.086  0.0000E+00  0.4800E+02
   7.096  0.0000E+00  0.4800E+02
   7.106  0.0000E+00  0.4800E+02
   7.116  0.0000E+00  0.4800E+02
   7.126  0.0000E+00  0.4800E+02
   7.136  0.0000E+00  0.4800E+02
   7.146  0.0000E+00  0.4800E+02
   7.156  0.0000E+00  0.4800E+02
   7.166  0.0000E+00  0.4800E+02
   7.176  0.0000E+00  0.4800E+02
   7.186  0.0000E+00  0.4800E+02
   7.196  0.0000E+00  0.4800E+02
   7.206  0.0000E+00  0.4800E+02
   7.216  0.0000E+00  0.4800E+02
   7.226  0.0000E+00  0.4800E+02
   7.236  0.0000E+00  0.4800E+02
   7.246  0.0000E+00  0.4800E+02
   7.256  0.0000E+00  0.4800E+02
   7.266  0.0000E+00  0.4800E+02
   7.276  0.0000E+00  0.4800E+02
   7.286  0.0000E+00  0.4800E+02
   7.296  0.0000E+00  0.4800E+02
   7.306  0.0000E+00  0.4800E+02
   7.316  0.0000E+00  0.4800E+02
   7.326  0.0000E+00  0.4800E+02
   7.336  0.0000E+00  0.4800E+02
   7.346  0.0000E+00  0.4800E+02
   7.356  0.0000E+00  0.4800E+02
   7.366  0.0000E+00  0.4800E+02
   7.376  0.0000E+00  0.4800E+02
   7.386  0.0000E+00  0.4800E+02
   7.396  0.0000E+00  0.4800E+02
   7.406  0.0000E+00  0.4800E+02
   7.416  0.0000E+00  0.4800E+02
   7.426  0.0000E+00  0.4800E+02
   7.436  0.0000E+00  0.4800E+02
   7.446  0.0000E+00  0.4800E+02
   7.456  0.0000E+00  0.4800E+02
   7.466  0.0000E+00  0.4800E+02
   7.476  0.0000E+00  0.4800E+02
   7.486  0.0000E+00  0.4800E+02
   7.496  0.0000E+00  0.4800E+02
   7.506  0.0000E+00  0.4800E+02
   7.516  0.0000E+00  0.4800E+02
   7.526  0.0000E+00  0.4800E+02
   7.536  0.0000E+00  0.4800E+02
   7.546  0.0000E+00  0.4800E+02
   7.556  0.0000E+00  0.4800E+02
   7.566  0.0000E+00  0.4800E+02
   7.576  0.0000E+00  0.4800E+02
   7.586  0.0000E+00  0.4800E+02
   7.596  0.0000E+00  0.4800E+02
   7.606  0.0000E+00  0.4800E+02
   7.616  0.0000E+00  0.4800E+02
   7.626  0.0000E+00  0.4800E+02
   7.636  0.0000E+00  0.4800E+02
   7.646  0.0000E+00  0.4800E+02
   7.656  0.0000E+00  0.4800E+02
   7.666  0.0000E+00  0.4800E+02
   7.676  0.0000E+00  0.4800E+02
   7.686  0.0000E+00  0.4800E+02
   7.696  0.0000E+00  0.4800E+02
   7.706  0.0000E+00  0.4800E+02
   7.716  0.0000E+00  0.4800E+02
   7.726  0.0000E+00  0.4800E+02
   7.736  0.0000E+00  0.4800E+02
   7.746  0.0000E+00  0.4800E+02
   7.756  0.0000E+00  0.4800E+02
   7.766  0.0000E+00  0.4800E+02
   7.776  0.0000E+00  0.4800E+02
   7.786  0.0000E+00  0.4800E+02
   7.796  0.0000E+00  0.4800E+02
   7.806  0.0000E+00  0.4800E+02
   7.816  0.0000E+00  0.4800E+02
   7.826  0.0000E+00  0.4800E+02
   7.836  0.0000E+00  0.4800E+02
   7.846  0.0000E+00  0.4800E+02
   7.856  0.0000E+00  0.4800E+02
   7.866  0.0000E+00  0.4800E+02
   7.876  0.0000E+00  0.4800E+02
   7.886  0.0000E+00  0.4800E+02
   7.896  0.0000E+00  0.4800E+02
   7.906  0.0000E+00  0.4800E+02
   7.916  0.0000E+00  0.4800E+02
   7.926  0.0000E+00  0.4800E+02
   7.936  0.0000E+00  0.4800E+02
   7.946  0.0000E+00  0.4800E+02
   7.956  0.0000E+00  0.4800E+02
   7.966  0.0000E+00  0.4800E+02
   7.976  0.0000E+00  0.4800E+02
   7.986  0.0000E+00  0.4800E+02
   7.996  0.0000E+00  0.4800E+02
   8.006  0.0000E+00  0.4800E+02
   8.016  0.0000E+00  0.4800E+02
   8.026  0.0000E+00  0.4800E+02
   8.036  0.0000E+00  0.4800E+02
   8.046  0.0000E+00  0.4800E+02
   8.056  0.0000E+00  0.4800E+02
   8.066  0.0000E+00  0.4800E+02
   8.076  0.0000E+00  0.4800E+02
   8.086  0.0000E+00  0.4800E+02
   8.096  0.0000E+00  0.4800E+02
   8.106  0.0000E+00  0.4800E+02
   8.116  0.0000E+00  0.4800E+02
   8.126  0.0000E+00  0.4800E+02
   8.136  0.0000E+00  0.4800E+02
   8.146  0.0000E+00  0.4800E+02
   8.156  0.0000E+00  0.4800E+02
   8.166  0.0000E+00  0.4800E+02
   8.176  0.0000E+00  0.4800E+02
   8.186  0.0000E+00  0.4800E+02
   8.196  0.0000E+00  0.4800E+02
   8.206  0.0000E+00  0.4800E+02
   8.216  0.0000E+00  0.4800E+02
   8.226  0.0000E+00  0.4800E+02
   8.236  0.0000E+00  0.4800E+02
   8.246  0.0000E+00  0.4800E+02
   8.256  0.0000E+00  0.4800E+02
   8.266  0.0000E+00  0.4800E+02
   8.276  0.0000E+00  0.4800E+02
   8.286  0.0000E+00  0.4800E+02
   8.296  0.0000E+00  0.4800E+02
   8.306  0.0000E+00  0.4800E+02
   8.316  0.0000E+00  0.4800E+02
   8.326  0.0000E+00  0.4800E+02
   8.336  0.0000E+00  0.4800E+02
   8.346  0.0000E+00  0.4800E+02
   8.356  0.0000E+00  0.4800E+02
   8.366  0.0000E+00  0.4800E+02
   8.376  0.0000E+00  0.4800E+02
   8.386  0.0000E+00  0.4800E+02
   8.396  0.0000E+00  0.4800E+02
   8.406  0.0000E+00  0.4800E+02
   8.416  0.0000E+00  0.4800E+02
   8.426  0.0000E+00  0.4800E+02
   8.436  0.0000E+00  0.4800E+02
   8.446  0.0000E+00  0.4800E+02
   8.456  0.0000E+00  0.4800E+02
   8.466  0.0000E+00  0.4800E+02
   8.476  0.0000E+00  0.4800E+02
   8.486  0.0000E+00  0.4800E+02
   8.496  0.0000E+00  0.4800E+02
   8.506  0.0000E+00  0.4800E+02
   8.516  0.0000E+00  0.4800E+02
   8.526  0.0000E+00  0.4800E+02
   8.536  0.0000E+00  0.4800E+02
   8.546  0.0000E+00  0.4800E+02
   8.556  0.0000E+00  0.4800E+02
   8.566  0.0000E+00  0.4800E+02
   8.576  0.0000E+00  0.4800E+02
   8.586  0.0000E+00  0.4800E+02
   8.596  0.0000E+00  0.4800E+02
   8.606  0.0000E+00  0.4800E+02
   8.616  0.0000E+00  0.4800E+02
   8.626  0.0000E+00  0.4800E+02
   8.636  0.0000E+00  0.4800E+02
   8.646  0.0000E+00  0.4800E+02
   8.656  0.0000E+00  0.4800E+02
   8.666  0.0000E+00  0.4800E+02
   8.676  0.0000E+00  0.4800E+02
   8.686  0.0000E+00  0.4800E+02
   8.696  0.0000E+00  0.4800E+02
   8.706  0.0000E+00  0.4800E+02
   8.716  0.0000E+00  0.4800E+02
   8.726  0.0000E+00  0.4800E+02
   8.736  0.0000E+00  0.4800E+02
   8.746  0.0000E+00  0.4800E+02
   8.756  0.0000E+00  0.4800E+02
   8.766  0.0000E+00  0.4800E+02
   8.776  0.0000E+00  0.4800E+02
   8.786  0.0000E+00  0.4800E+02
   8.796  0.0000E+00  0.4800E+02
   8.806  0.0000E+00  0.4800E+02
   8.816  0.0000E+00  0.4800E+02
   8.826  0.0000E+00  0.4800E+02
   8.836  0.0000E+00  0.4800E+02
   8.846  0.0000E+00  0.4800E+02
   8.856  0.0000E+00  0.4800E+02
   8.866  0.0000E+00  0.4800E+02
   8.876  0.0000E+00  0.4800E+02
   8.886  0.0000E+00  0.4800E+02
   8.896  0.0000E+00  0.4800E+02
   8.906  0.0000E+00  0.4800E+02
   8.916  0.0000E+00  0.4800E+02
   8.926  0.1488E+00  0.4800E+02
   8.936  0.1517E+00  0.4800E+02
   8.946  0.1546E+00  0.4800E+02
   8.956  0.1575E+00  0.4800E+02
   8.966  0.1605E+00  0.4801E+02
   8.976  0.1634E+00  0.4801E+02
   8.986  0.1664E+00  0.4801E+02
   8.996  0.1693E+00  0.4801E+02
   9.006  0.1723E+00  0.4801E+02
   9.016  0.1753E+00  0.4801E+02
   9.026  0.1783E+00  0.4802E+02
   9.036  0.1813E+00  0.4802E+02
   9.046  0.1843E+00  0.4802E+02
   9.056  0.1873E+00  0.4802E+02
   9.066  0.1903E+00  0.4802E+02
   9.076  0.1934E+00  0.4803E+02
   9.086  0.1964E+00  0.4803E+02
   9.096  0.1995E+00  0.4803E+02
   9.106  0.2026E+00  0.4803E+02
   9.116  0.2056E+00  0.4803E+02
   9.126  0.2087E+00  0.4804E+02
   9.136  0.2118E+00  0.4804E+02
   9.146  0.2149E+00  0.4804E+02
   9.156  0.2181E+00  0.4804E+02
   9.166  0.2212E+00  0.4804E+02
   9.176  0.2243E+00  0.4805E+02
   9.186  0.2275E+00  0.4805E+02
   9.196  0.2307E+00  0.4805E+02
   9.206  0.2338E+00  0.4805E+02
   9.216  0.2370E+00  0.4806E+02
   9.226  0.2402E+00  0.4806E+02
   9.236  0.2434E+00  0.4806E+02
   9.246  0.2466E+00  0.4806E+02
   9.256  0.2498E+00  0.4807E+02
   9.266  0.2531E+00  0.4807E+02
   9.276  0.2563E+00  0.4807E+02
   9.286  0.2596E+00  0.4807E+02
   9.296  0.2628E+00  0.4808E+02
   9.306  0.2661E+00  0.4808E+02
   9.316  0.2694E+00  0.4808E+02
   9.326  0.2727E+00  0.4808E+02
   9.336  0.2760E+00  0.4809E+02
   9.346  0.2793E+00  0.4809E+02
   9.356  0.2834E+00  0.4809E+02
   9.366  0.2876E+00  0.4810E+02
   9.376  0.2918E+00  0.4810E+02
   9.386  0.2960E+00  0.4810E+02
   9.396  0.3002E+00  0.4810E+02
   9.406  0.3044E+00  0.4811E+02
   9.416  0.3086E+00  0.4811E+02
   9.426  0.3129E+00  0.4811E+02
   9.436  0.3171E+00  0.4812E+02
   9.446  0.3214E+00  0.4812E+02
   9.456  0.3257E+00  0.4812E+02
   9.466  0.3300E+00  0.4813E+02
   9.476  0.3344E+00  0.4813E+02
   9.486  0.3387E+00  0.4813E+02
   9.496  0.3431E+00  0.4814E+02
   9.506  0.3474E+00  0.4814E+02
   9.516  0.3518E+00  0.4814E+02
   9.526  0.3563E+00  0.4815E+02
   9.536  0.3607E+00  0.4815E+02
   9.546  0.3651E+00  0.4815E+02
   9.556  0.3696E+00  0.4816E+02
   9.566  0.3741E+00  0.4816E+02
   9.576  0.3786E+00  0.4816E+02
   9.586  0.3831E+00  0.4817E+02
   9.596  0.3876E+00  0.4817E+02
   9.606  0.3921E+00  0.4818E+02
   9.616  0.3967E+00  0.4818E+02
   9.626  0.4013E+00  0.4818E+02
   9.636  0.4058E+00  0.4819E+02
   9.646  0.4104E+00  0.4819E+02
   9.656  0.4151E+00  0.4820E+02
   9.666  0.4197E+00  0.4820E+02
   9.676  0.4244E+00  0.4821E+02
   9.686  0.4290E+00  0.4821E+02
   9.696  0.4337E+00  0.4821E+02
   9.706  0.4384E+00  0.4822E+02
   9.716  0.4431E+00  0.4822E+02
   9.726  0.4479E+00  0.4823E+02
   9.736  0.4526E+00  0.4823E+02
   9.746  0.4574E+00  0.4824E+02
   9.756  0.4622E+00  0.4824E+02
   9.766  0.4670E+00  0.4825E+02
   9.776  0.4718E+00  0.4825E+02
   9.786  0.4766E+00  0.4825E+02
   9.796  0.4815E+00  0.4826E+02
   9.806  0.4863E+00  0.4826E+02
   9.816  0.4912E+00  0.4827E+02
   9.826  0.4961E+00  0.4827E+02
   9.836  0.5010E+00  0.4828E+02
   9.846  0.5059E+00  0.4828E+02
   9.856  0.5109E+00  0.4829E+02
   9.866  0.5158E+00  0.4829E+02
   9.876  0.5208E+00  0.4830E+02
   9.886  0.5258E+00  0.4830E+02
   9.896  0.5308E+00  0.4831E+02
   9.906  0.5358E+00  0.4832E+02
   9.916  0.5409E+00  0.4832E+02
   9.926  0.6871E+00  0.4833E+02
   9.936  0.7550E+00  0.4833E+02
   9.946  0.7557E+00  0.4834E+02
   9.956  0.7566E+00  0.4835E+02
   9.966  0.7577E+00  0.4836E+02
   9.976  0.7591E+00  0.4836E+02
   9.986  0.7607E+00  0.4837E+02
   9.996  0.7625E+00  0.4838E+02
  10.006  0.7646E+00  0.4839E+02
  10.016  0.7669E+00  0.4839E+02
  10.026  0.7695E+00  0.4840E+02
  10.036  0.7723E+00  0.4841E+02
  10.046  0.7756E+00  0.4842E+02
  10.056  0.7810E+00  0.4843E+02
  10.066  0.7870E+00  0.4843E+02
  10.076  0.7931E+00  0.4844E+02
  10.086  0.7992E+00  0.4845E+02
  10.096  0.8053E+00  0.4846E+02
  10.106  0.8116E+00  0.4847E+02
  10.116  0.8179E+00  0.4847E+02
  10.126  0.8242E+00  0.4848E+02
  10.136  0.8307E+00  0.4849E+02
  10.146  0.8372E+00  0.4850E+02
  10.156  0.8437E+00  0.4851E+02
  10.166  0.8504E+00  0.4852E+02
  10.176  0.8571E+00  0.4852E+02
  10.186  0.8638E+00  0.4853E+02
  10.196  0.8707E+00  0.4854E+02
  10.206  0.8776E+00  0.4855E+02
  10.216  0.8845E+00  0.4856E+02
  10.226  0.8915E+00  0.4857E+02
  10.236  0.9003E+00  0.4858E+02
  10.246  0.9093E+00  0.4859E+02
  10.256  0.9183E+00  0.4859E+02
  10.266  0.9274E+00  0.4860E+02
  10.276  0.9366E+00  0.4861E+02
  10.286  0.9458E+00  0.4862E+02
  10.296  0.9551E+00  0.4863E+02
  10.306  0.9645E+00  0.4864E+02
  10.316  0.9739E+00  0.4865E+02
  10.326  0.1036E+01  0.4866E+02
  10.336  0.1061E+01  0.4867E+02
  10.346  0.1070E+01  0.4868E+02
  10.356  0.1079E+01  0.4869E+02
  10.366  0.1088E+01  0.4870E+02
  10.376  0.1098E+01  0.4872E+02
  10.386  0.1107E+01  0.4873E+02
  10.396  0.1116E+01  0.4874E+02
  10.406  0.1126E+01  0.4875E+02
  10.416  0.1135E+01  0.4876E+02
  10.426  0.1144E+01  0.4877E+02
  10.436  0.1153E+01  0.4878E+02
  10.446  0.1163E+01  0.4879E+02
  10.456  0.1172E+01  0.4881E+02
  10.466  0.1181E+01  0.4882E+02
  10.476  0.1190E+01  0.4883E+02
  10.486  0.1199E+01  0.4884E+02
  10.496  0.1209E+01  0.4885E+02
  10.506  0.1218E+01  0.4887E+02
  10.516  0.1227E+01  0.4888E+02
  10.526  0.1236E+01  0.4889E+02
  10.536  0.1245E+01  0.4890E+02
  10.546  0.1254E+01  0.4892E+02
  10.556  0.1263E+01  0.4893E+02
  10.566  0.1273E+01  0.4894E+02
  10.576  0.1282E+01  0.4895E+02
  10.586  0.1291E+01  0.4897E+02
  10.596  0.1300E+01  0.4898E+02
  10.606  0.1309E+01  0.4899E+02
  10.616  0.1318E+01  0.4901E+02
  10.626  0.1327E+01  0.4902E+02
  10.636  0.1336E+01  0.4903E+02
  10.646  0.1345E+01  0.4905E+02
  10.656  0.1354E+01  0.4906E+02
  10.666  0.1363E+01  0.4907E+02
  10.676  0.1372E+01  0.4909E+02
  10.686  0.1381E+01  0.4910E+02
  10.696  0.1390E+01  0.4911E+02
  10.706  0.1399E+01  0.4913E+02
  10.716  0.1408E+01  0.4914E+02
  10.726  0.1418E+01  0.4916E+02
  10.736  0.1429E+01  0.4917E+02
  10.746  0.1441E+01  0.4918E+02
  10.756  0.1455E+01  0.4920E+02
  10.766  0.1471E+01  0.4921E+02
  10.776  0.1487E+01  0.4923E+02
  10.786  0.1506E+01  0.4924E+02
  10.796  0.1445E+01  0.4926E+02
  10.806  0.1454E+01  0.4927E+02
  10.816  0.1462E+01  0.4929E+02
  10.826  0.1470E+01  0.4930E+02
  10.836  0.1476E+01  0.4932E+02
  10.846  0.1482E+01  0.4933E+02
  10.856  0.1488E+01  0.4935E+02
  10.866  0.1492E+01  0.4936E+02
  10.876  0.1496E+01  0.4938E+02
  10.886  0.1499E+01  0.4939E+02
  10.896  0.1502E+01  0.4941E+02
  10.906  0.1503E+01  0.4942E+02
  10.916  0.1505E+01  0.4944E+02
  10.926  0.1508E+01  0.4945E+02
  10.936  0.1510E+01  0.4947E+02
  10.946  0.1512E+01  0.4948E+02
  10.956  0.1515E+01  0.4950E+02
  10.966  0.1518E+01  0.4951E+02
  10.976  0.1521E+01  0.4953E+02
  10.986  0.1524E+01  0.4954E+02
  10.996  0.1528E+01  0.4956E+02
  11.006  0.1531E+01  0.4957E+02
  11.016  0.1535E+01  0.4959E+02
  11.026  0.1528E+01  0.4960E+02
  11.036  0.1512E+01  0.4962E+02
  11.046  0.1495E+01  0.4963E+02
  11.056  0.1477E+01  0.4965E+02
  11.066  0.1458E+01  0.4966E+02
  11.076  0.1439E+01  0.4968E+02
  11.086  0.1419E+01  0.4969E+02
  11.096  0.1399E+01  0.4971E+02
  11.106  0.1378E+01  0.4972E+02
  11.116  0.1356E+01  0.4973E+02
  11.126  0.1333E+01  0.4975E+02
  11.136  0.1310E+01  0.4976E+02
  11.146  0.1286E+01  0.4977E+02
  11.156  0.1261E+01  0.4979E+02
  11.166  0.1235E+01  0.4980E+02
  11.176  0.1209E+01  0.4981E+02
  11.186  0.1182E+01  0.4982E+02
  11.196  0.1155E+01  0.4983E+02
  11.206  0.1127E+01  0.4985E+02
  11.216  0.1098E+01  0.4986E+02
  11.226  0.1068E+01  0.4987E+02
  11.236  0.1038E+01  0.4988E+02
  11.246  0.9675E+00  0.4989E+02
  11.256  0.8847E+00  0.4990E+02
  11.266  0.8474E+00  0.4991E+02
  11.276  0.9364E+00  0.4991E+02
  11.286  0.1156E+01  0.4993E+02
  11.296  0.1163E+01  0.4994E+02
  11.306  0.1187E+01  0.4995E+02
  11.316  0.1195E+01  0.4996E+02
  11.326  0.1173E+01  0.4997E+02
  11.336  0.1153E+01  0.4998E+02
  11.346  0.1133E+01  0.5000E+02
  11.356  0.1113E+01  0.5001E+02
  11.366  0.1095E+01  0.5002E+02
  11.376  0.1077E+01  0.5003E+02
  11.386  0.1061E+01  0.5004E+02
  11.396  0.1045E+01  0.5005E+02
  11.406  0.1030E+01  0.5006E+02
  11.416  0.1016E+01  0.5007E+02
  11.426  0.1002E+01  0.5008E+02
  11.436  0.9921E+00  0.5009E+02
  11.446  0.9874E+00  0.5010E+02
  11.456  0.9844E+00  0.5011E+02
  11.466  0.9833E+00  0.5012E+02
  11.476  0.9840E+00  0.5013E+02
  11.486  0.9871E+00  0.5014E+02
  11.496  0.1027E+01  0.5015E+02
  11.506  0.1068E+01  0.5016E+02
  11.516  0.1111E+01  0.5017E+02
  11.526  0.1155E+01  0.5018E+02
  11.536  0.1200E+01  0.5019E+02
  11.546  0.1246E+01  0.5021E+02
  11.556  0.1293E+01  0.5022E+02
  11.566  0.1341E+01  0.5023E+02
  11.576  0.1391E+01  0.5025E+02
  11.586  0.1442E+01  0.5026E+02
  11.596  0.1494E+01  0.5027E+02
  11.606  0.1547E+01  0.5029E+02
  11.616  0.1602E+01  0.5031E+02
  11.626  0.1694E+01  0.5032E+02
  11.636  0.1878E+01  0.5034E+02
  11.646  0.2151E+01  0.5036E+02
  11.656  0.2894E+01  0.5038E+02
  11.666  0.3812E+01  0.5042E+02
  11.676  0.4436E+01  0.5046E+02
  11.686  0.4781E+01  0.5051E+02
  11.696  0.5380E+01  0.5056E+02
  11.706  0.6029E+01  0.5061E+02
  11.716  0.6729E+01  0.5068E+02
  11.726  0.7480E+01  0.5075E+02
  11.736  0.8706E+01  0.5083E+02
  11.746  0.1244E+02  0.5094E+02
  11.756  0.1296E+02  0.5107E+02
  11.766  0.1228E+02  0.5119E+02
  11.776  0.1171E+02  0.5131E+02
  11.786  0.1079E+02  0.5143E+02
  11.796  0.9531E+01  0.5153E+02
  11.806  0.8001E+01  0.5162E+02
  11.816  0.6514E+01  0.5169E+02
  11.826  0.5396E+01  0.5175E+02
  11.836  0.4933E+01  0.5180E+02
  11.846  0.4836E+01  0.5185E+02
  11.856  0.4726E+01  0.5189E+02
  11.866  0.4612E+01  0.5194E+02
  11.876  0.4483E+01  0.5199E+02
  11.886  0.4337E+01  0.5203E+02
  11.896  0.4175E+01  0.5207E+02
  11.906  0.3997E+01  0.5211E+02
  11.916  0.3809E+01  0.5215E+02
  11.926  0.3707E+01  0.5219E+02
  11.936  0.3885E+01  0.5223E+02
  11.946  0.4400E+01  0.5227E+02
  11.956  0.4563E+01  0.5231E+02
  11.966  0.4613E+01  0.5236E+02
  11.976  0.4718E+01  0.5241E+02
  11.986  0.4877E+01  0.5246E+02
  11.996  0.5092E+01  0.5250E+02
  12.006  0.5212E+01  0.5256E+02
  12.016  0.5336E+01  0.5261E+02
  12.026  0.5591E+01  0.5266E+02
  12.036  0.6565E+01  0.5272E+02
  12.046  0.7758E+01  0.5280E+02
  12.056  0.8684E+01  0.5288E+02
  12.066  0.9185E+01  0.5297E+02
  12.076  0.9046E+01  0.5306E+02
  12.086  0.8912E+01  0.5315E+02
  12.096  0.8782E+01  0.5324E+02
  12.106  0.8658E+01  0.5332E+02
  12.116  0.8539E+01  0.5341E+02
  12.126  0.8434E+01  0.5350E+02
  12.136  0.8537E+01  0.5358E+02
  12.146  0.8547E+01  0.5367E+02
  12.156  0.8420E+01  0.5375E+02
  12.166  0.8157E+01  0.5383E+02
  12.176  0.7757E+01  0.5391E+02
  12.186  0.7225E+01  0.5399E+02
  12.196  0.6599E+01  0.5406E+02
  12.206  0.5890E+01  0.5412E+02
  12.216  0.5097E+01  0.5418E+02
  12.226  0.4446E+01  0.5422E+02
  12.236  0.3917E+01  0.5426E+02
  12.246  0.3461E+01  0.5430E+02
  12.256  0.3078E+01  0.5433E+02
  12.266  0.2815E+01  0.5436E+02
  12.276  0.2630E+01  0.5439E+02
  12.286  0.2508E+01  0.5442E+02
  12.296  0.2464E+01  0.5444E+02
  12.306  0.2543E+01  0.5447E+02
  12.316  0.2641E+01  0.5449E+02
  12.326  0.2736E+01  0.5452E+02
  12.336  0.2827E+01  0.5455E+02
  12.346  0.2915E+01  0.5458E+02
  12.356  0.3001E+01  0.5461E+02
  12.366  0.3112E+01  0.5464E+02
  12.376  0.3255E+01  0.5467E+02
  12.386  0.3458E+01  0.5470E+02
  12.396  0.3723E+01  0.5474E+02
  12.406  0.4035E+01  0.5478E+02
  12.416  0.4394E+01  0.5482E+02
  12.426  0.4790E+01  0.5486E+02
  12.436  0.5180E+01  0.5491E+02
  12.446  0.5559E+01  0.5497E+02
  12.456  0.5928E+01  0.5502E+02
  12.466  0.6285E+01  0.5509E+02
  12.476  0.6671E+01  0.5515E+02
  12.486  0.7101E+01  0.5522E+02
  12.496  0.7523E+01  0.5529E+02
  12.506  0.7907E+01  0.5537E+02
  12.516  0.8069E+01  0.5545E+02
  12.526  0.9235E+01  0.5554E+02
  12.536  0.7794E+01  0.5562E+02
  12.546  0.7617E+01  0.5570E+02
  12.556  0.7108E+01  0.5577E+02
  12.566  0.6202E+01  0.5584E+02
  12.576  0.5261E+01  0.5589E+02
  12.586  0.4287E+01  0.5594E+02
  12.596  0.3412E+01  0.5598E+02
  12.606  0.3177E+01  0.5601E+02
  12.616  0.2974E+01  0.5604E+02
  12.626  0.2810E+01  0.5607E+02
  12.636  0.2696E+01  0.5610E+02
  12.646  0.2617E+01  0.5613E+02
  12.656  0.2571E+01  0.5615E+02
  12.666  0.2559E+01  0.5618E+02
  12.676  0.2580E+01  0.5620E+02
  12.686  0.2678E+01  0.5623E+02
  12.696  0.3102E+01  0.5626E+02
  12.706  0.3663E+01  0.5629E+02
  12.716  0.4279E+01  0.5633E+02
  12.726  0.4952E+01  0.5638E+02
  12.736  0.5675E+01  0.5643E+02
  12.746  0.6214E+01  0.5649E+02
  12.756  0.6795E+01  0.5656E+02
  12.766  0.7408E+01  0.5663E+02
  12.776  0.9334E+01  0.5673E+02
  12.786  0.9315E+01  0.5682E+02
  12.796  0.9247E+01  0.5691E+02
  12.806  0.9130E+01  0.5700E+02
  12.816  0.8964E+01  0.5709E+02
  12.826  0.8742E+01  0.5718E+02
  12.836  0.8453E+01  0.5727E+02
  12.846  0.8098E+01  0.5735E+02
  12.856  0.7681E+01  0.5743E+02
  12.866  0.7241E+01  0.5750E+02
  12.876  0.6789E+01  0.5757E+02
  12.886  0.6323E+01  0.5764E+02
  12.896  0.5844E+01  0.5770E+02
  12.906  0.5363E+01  0.5776E+02
  12.916  0.4904E+01  0.5781E+02
  12.926  0.4277E+01  0.5785E+02
  12.936  0.3609E+01  0.5789E+02
  12.946  0.2900E+01  0.5793E+02
  12.956  0.2168E+01  0.5795E+02
  12.966  0.4731E+01  0.5800E+02
